##TITLE=No Description
##DATA TYPE=INFRARED SPECTRUM
##XUNITS=1/CM
##YUNITS=%T
400.452181  	34.338367 
401.887493  	29.069643 
403.322806  	23.621064 
404.758118  	28.082464 
406.193431  	35.302754 
407.628743  	37.113765 
409.064056  	36.200292 
410.499368  	35.686649 
411.934681  	32.490342 
413.369993  	28.703714 
414.805306  	28.985855 
416.240618  	31.163793 
417.675931  	37.396796 
419.111243  	46.171886 
420.546556  	40.844532 
421.981868  	38.998487 
423.417180  	41.014518 
424.852493  	42.365466 
426.287805  	41.681380 
427.723118  	38.847466 
429.158430  	36.073367 
430.593743  	34.064326 
432.029055  	32.993960 
433.464368  	34.419433 
434.899680  	35.770294 
436.334993  	35.296107 
437.770305  	34.172231 
439.205618  	32.311225 
440.640930  	33.979303 
442.076243  	38.246352 
443.511555  	38.088105 
444.946868  	36.451603 
446.382180  	35.286715 
447.817493  	31.657281 
449.252805  	29.739251 
450.688118  	29.974971 
452.123430  	29.042307 
453.558742  	30.076387 
454.994055  	32.631042 
456.429367  	33.864182 
457.864680  	34.193493 
459.299992  	33.479181 
460.735305  	32.235072 
462.170617  	33.304662 
463.605930  	33.142194 
465.041242  	31.590544 
466.476555  	33.734614 
467.911867  	36.075747 
469.347180  	32.640005 
470.782492  	29.952444 
472.217805  	30.478366 
473.653117  	31.283693 
475.088430  	32.539488 
476.523742  	32.611923 
477.959055  	31.465646 
479.394367  	31.097299 
480.829680  	29.599328 
482.264992  	28.080863 
483.700304  	28.495789 
485.135617  	28.480351 
486.570929  	28.201522 
488.006242  	27.863232 
489.441554  	27.713022 
490.876867  	28.971893 
492.312179  	29.165026 
493.747492  	28.881372 
495.182804  	29.754504 
496.618117  	29.787899 
498.053429  	30.702214 
499.488742  	32.336243 
500.924054  	31.748093 
502.359367  	31.674292 
503.794679  	32.147250 
505.229992  	31.711522 
506.665304  	32.259899 
508.100617  	32.057012 
509.535929  	31.574948 
510.971242  	32.886915 
512.406554  	33.085174 
513.841866  	32.060259 
515.277179  	31.491996 
516.712491  	30.808253 
518.147804  	30.881839 
519.583116  	31.065885 
521.018429  	31.082622 
522.453741  	31.515605 
523.889054  	31.073106 
525.324366  	30.789244 
526.759679  	31.124784 
528.194991  	30.471471 
529.630304  	30.399558 
531.065616  	30.477285 
532.500929  	29.519773 
533.936241  	29.230762 
535.371554  	29.341962 
536.806866  	29.711192 
538.242179  	30.715867 
539.677491  	31.306548 
541.112804  	32.702190 
542.548116  	34.666976 
543.983428  	35.155766 
545.418741  	35.545811 
546.854053  	36.161436 
548.289366  	36.347332 
549.724678  	37.276504 
551.159991  	38.069449 
552.595303  	38.255008 
554.030616  	38.463993 
555.465928  	38.433402 
556.901241  	38.780753 
558.336553  	38.924404 
559.771866  	38.391248 
561.207178  	38.728976 
562.642491  	39.049827 
564.077803  	38.958662 
565.513116  	39.960085 
566.948428  	40.388819 
568.383741  	39.336644 
569.819053  	39.122496 
571.254366  	39.783638 
572.689678  	39.838977 
574.124990  	39.650820 
575.560303  	40.126503 
576.995615  	40.804627 
578.430928  	40.729303 
579.866240  	40.521362 
581.301553  	40.787211 
582.736865  	41.062816 
584.172178  	41.391085 
585.607490  	41.967637 
587.042803  	42.452083 
588.478115  	42.748311 
589.913428  	43.002358 
591.348740  	43.272213 
592.784053  	43.178333 
594.219365  	42.767300 
595.654678  	42.808530 
597.089990  	42.994539 
598.525303  	42.743958 
599.960615  	42.782567 
601.395928  	43.049790 
602.831240  	42.557649 
604.266552  	41.887095 
605.701865  	41.899831 
607.137177  	41.799100 
608.572490  	41.198749 
610.007802  	40.888910 
611.443115  	40.944223 
612.878427  	41.180087 
614.313740  	41.647184 
615.749052  	42.117193 
617.184365  	42.955901 
618.619677  	44.115633 
620.054990  	44.871683 
621.490302  	45.544289 
622.925615  	46.276697 
624.360927  	46.832729 
625.796240  	47.290994 
627.231552  	47.480317 
628.666865  	47.570307 
630.102177  	47.788752 
631.537490  	47.898016 
632.972802  	48.024755 
634.408114  	48.083238 
635.843427  	48.094446 
637.278739  	48.535434 
638.714052  	48.848844 
640.149364  	48.835185 
641.584677  	49.000619 
643.019989  	48.886277 
644.455302  	48.630207 
645.890614  	48.686357 
647.325927  	48.639876 
648.761239  	48.784289 
650.196552  	49.111014 
651.631864  	49.237853 
653.067177  	49.573290 
654.502489  	49.659861 
655.937802  	49.347238 
657.373114  	49.443599 
658.808427  	49.640874 
660.243739  	49.716541 
661.679051  	49.925121 
663.114364  	50.161745 
664.549676  	50.451222 
665.984989  	50.638016 
667.420301  	51.059163 
668.855614  	52.205307 
670.290926  	51.485980 
671.726239  	51.236445 
673.161551  	51.767523 
674.596864  	52.221337 
676.032176  	52.415579 
677.467489  	52.629583 
678.902801  	52.641683 
680.338114  	52.681328 
681.773426  	52.788813 
683.208739  	52.901611 
684.644051  	53.045462 
686.079364  	53.080842 
687.514676  	53.198871 
688.949989  	53.342165 
690.385301  	53.337413 
691.820613  	53.337696 
693.255926  	53.259078 
694.691238  	53.353594 
696.126551  	53.721669 
697.561863  	53.833925 
698.997176  	53.766465 
700.432488  	53.733962 
701.867801  	53.694730 
703.303113  	53.792414 
704.738426  	53.928769 
706.173738  	54.201269 
707.609051  	54.765799 
709.044363  	55.398105 
710.479676  	56.103240 
711.914988  	56.639409 
713.350301  	56.990595 
714.785613  	57.655585 
716.220926  	58.053532 
717.656238  	57.961731 
719.091551  	58.052086 
720.526863  	58.087822 
721.962175  	58.162796 
723.397488  	58.659012 
724.832800  	59.433754 
726.268113  	60.613373 
727.703425  	61.662001 
729.138738  	62.186838 
730.574050  	62.830570 
732.009363  	63.585930 
733.444675  	64.544199 
734.879988  	66.001712 
736.315300  	67.343436 
737.750613  	68.550854 
739.185925  	69.591095 
740.621238  	69.858958 
742.056550  	69.704619 
743.491863  	69.229811 
744.927175  	68.322846 
746.362488  	67.489790 
747.797800  	66.647489 
749.233113  	65.760500 
750.668425  	65.181719 
752.103737  	64.876588 
753.539050  	64.779007 
754.974362  	64.728510 
756.409675  	64.812328 
757.844987  	65.310901 
759.280300  	65.794094 
760.715612  	65.839734 
762.150925  	65.268735 
763.586237  	64.101075 
765.021550  	63.214656 
766.456862  	63.227905 
767.892175  	64.014088 
769.327487  	65.202391 
770.762800  	65.919120 
772.198112  	65.790483 
773.633425  	65.277396 
775.068737  	64.700188 
776.504050  	64.222481 
777.939362  	63.859966 
779.374675  	63.673033 
780.809987  	63.755124 
782.245299  	63.852538 
783.680612  	63.974793 
785.115924  	64.140755 
786.551237  	64.049071 
787.986549  	63.873377 
789.421862  	63.778720 
790.857174  	63.811342 
792.292487  	64.179238 
793.727799  	64.552902 
795.163112  	64.729945 
796.598424  	64.900372 
798.033737  	65.042130 
799.469049  	65.410578 
800.904362  	66.023844 
802.339674  	66.687883 
803.774987  	67.758527 
805.210299  	69.001624 
806.645612  	69.666403 
808.080924  	69.375041 
809.516237  	68.055377 
810.951549  	66.548702 
812.386861  	65.715757 
813.822174  	65.478560 
815.257486  	65.674198 
816.692799  	66.082033 
818.128111  	66.466209 
819.563424  	66.999537 
820.998736  	67.716756 
822.434049  	68.523303 
823.869361  	69.299838 
825.304674  	70.001862 
826.739986  	70.846546 
828.175299  	71.661835 
829.610611  	72.479877 
831.045924  	73.732822 
832.481236  	74.668668 
833.916549  	74.098638 
835.351861  	72.210439 
836.787174  	70.188766 
838.222486  	68.875821 
839.657799  	68.123793 
841.093111  	67.636136 
842.528423  	67.431849 
843.963736  	67.323600 
845.399048  	67.365123 
846.834361  	67.650914 
848.269673  	67.871477 
849.704986  	68.043880 
851.140298  	68.166228 
852.575611  	68.097037 
854.010923  	68.082458 
855.446236  	68.157714 
856.881548  	68.281453 
858.316861  	68.515993 
859.752173  	68.630094 
861.187486  	68.617061 
862.622798  	68.626028 
864.058111  	68.690385 
865.493423  	68.907588 
866.928736  	69.172092 
868.364048  	69.451266 
869.799361  	69.762027 
871.234673  	69.903325 
872.669985  	69.971674 
874.105298  	70.007760 
875.540610  	69.958444 
876.975923  	70.049641 
878.411235  	70.129110 
879.846548  	70.112276 
881.281860  	70.235410 
882.717173  	70.303304 
884.152485  	70.307268 
885.587798  	70.423758 
887.023110  	70.546514 
888.458423  	70.802242 
889.893735  	71.168545 
891.329048  	71.443101 
892.764360  	71.730000 
894.199673  	72.052626 
895.634985  	72.436525 
897.070298  	72.860538 
898.505610  	73.227363 
899.940923  	73.757069 
901.376235  	74.424848 
902.811547  	75.041772 
904.246860  	75.653831 
905.682172  	76.121216 
907.117485  	76.518135 
908.552797  	76.977993 
909.988110  	77.333673 
911.423422  	77.742521 
912.858735  	78.183756 
914.294047  	78.368678 
915.729360  	78.448366 
917.164672  	78.488344 
918.599985  	78.451693 
920.035297  	78.481946 
921.470610  	78.682489 
922.905922  	79.149446 
924.341235  	79.526520 
925.776547  	79.176857 
927.211860  	78.010754 
928.647172  	76.412908 
930.082485  	75.003461 
931.517797  	74.091854 
932.953109  	73.509134 
934.388422  	73.268574 
935.823734  	73.365962 
937.259047  	73.635030 
938.694359  	74.061063 
940.129672  	74.448388 
941.564984  	74.721072 
943.000297  	74.986037 
944.435609  	75.128541 
945.870922  	75.270361 
947.306234  	75.424630 
948.741547  	75.364988 
950.176859  	75.241681 
951.612172  	75.017143 
953.047484  	74.604994 
954.482797  	74.225104 
955.918109  	73.758199 
957.353422  	73.198677 
958.788734  	72.857730 
960.224047  	72.801280 
961.659359  	72.938510 
963.094671  	72.947915 
964.529984  	72.708048 
965.965296  	72.465685 
967.400609  	72.133477 
968.835921  	71.758922 
970.271234  	71.516478 
971.706546  	71.223318 
973.141859  	70.986635 
974.577171  	70.895681 
976.012484  	70.788274 
977.447796  	70.765325 
978.883109  	70.731249 
980.318421  	70.606518 
981.753734  	70.537417 
983.189046  	70.377999 
984.624359  	70.146497 
986.059671  	69.961795 
987.494984  	69.803187 
988.930296  	69.813211 
990.365609  	69.891155 
991.800921  	69.991608 
993.236233  	70.271619 
994.671546  	70.520245 
996.106858  	70.785639 
997.542171  	71.228398 
998.977483  	71.627307 
1000.412796  	71.870203 
1001.848108  	71.644272 
1003.283421  	70.846750 
1004.718733  	69.939867 
1006.154046  	69.038028 
1007.589358  	68.166147 
1009.024671  	67.359181 
1010.459983  	66.522235 
1011.895296  	65.894979 
1013.330608  	65.387140 
1014.765921  	64.807816 
1016.201233  	64.398269 
1017.636546  	63.949220 
1019.071858  	63.425844 
1020.507171  	62.994046 
1021.942483  	62.360158 
1023.377795  	61.831787 
1024.813108  	61.498478 
1026.248420  	61.008430 
1027.683733  	60.719711 
1029.119045  	60.451002 
1030.554358  	60.636151 
1031.989670  	62.436591 
1033.424983  	63.430747 
1034.860295  	61.203443 
1036.295608  	58.926179 
1037.730920  	58.204406 
1039.166233  	57.924706 
1040.601545  	57.665564 
1042.036858  	57.454747 
1043.472170  	57.254107 
1044.907483  	57.082133 
1046.342795  	56.828628 
1047.778108  	56.593895 
1049.213420  	56.439272 
1050.648733  	56.277617 
1052.084045  	56.135756 
1053.519357  	56.031639 
1054.954670  	55.975417 
1056.389982  	55.935905 
1057.825295  	55.994323 
1059.260607  	56.240013 
1060.695920  	56.533805 
1062.131232  	56.930214 
1063.566545  	57.383834 
1065.001857  	57.596987 
1066.437170  	57.542538 
1067.872482  	57.180925 
1069.307795  	56.576394 
1070.743107  	56.035719 
1072.178420  	55.613912 
1073.613732  	55.368153 
1075.049045  	55.337420 
1076.484357  	55.411086 
1077.919670  	55.677256 
1079.354982  	56.004442 
1080.790295  	56.191004 
1082.225607  	56.292341 
1083.660919  	56.308554 
1085.096232  	56.449530 
1086.531544  	56.835798 
1087.966857  	57.299533 
1089.402169  	57.889066 
1090.837482  	58.524595 
1092.272794  	59.165336 
1093.708107  	59.960075 
1095.143419  	60.814681 
1096.578732  	61.835206 
1098.014044  	63.099981 
1099.449357  	64.424194 
1100.884669  	65.745102 
1102.319982  	66.694861 
1103.755294  	67.006059 
1105.190607  	66.793564 
1106.625919  	66.220825 
1108.061232  	65.817841 
1109.496544  	65.867446 
1110.931857  	66.137339 
1112.367169  	66.638121 
1113.802481  	67.156276 
1115.237794  	67.356447 
1116.673106  	67.448267 
1118.108419  	67.643531 
1119.543731  	68.016689 
1120.979044  	68.485667 
1122.414356  	68.844385 
1123.849669  	69.216590 
1125.284981  	69.639451 
1126.720294  	70.034383 
1128.155606  	70.458828 
1129.590919  	70.832256 
1131.026231  	71.247772 
1132.461544  	71.742914 
1133.896856  	72.095655 
1135.332169  	72.369849 
1136.767481  	72.523383 
1138.202794  	72.486401 
1139.638106  	72.586069 
1141.073419  	72.915452 
1142.508731  	73.377571 
1143.944043  	73.984811 
1145.379356  	74.654241 
1146.814668  	75.293746 
1148.249981  	75.649669 
1149.685293  	75.525198 
1151.120606  	75.100143 
1152.555918  	74.615059 
1153.991231  	74.292450 
1155.426543  	74.233376 
1156.861856  	74.358977 
1158.297168  	74.627338 
1159.732481  	74.932854 
1161.167793  	75.295296 
1162.603106  	75.839173 
1164.038418  	76.452959 
1165.473731  	77.219810 
1166.909043  	78.203549 
1168.344356  	79.107364 
1169.779668  	79.798699 
1171.214981  	80.175013 
1172.650293  	80.330273 
1174.085605  	80.602649 
1175.520918  	80.993873 
1176.956230  	81.513712 
1178.391543  	82.176216 
1179.826855  	82.801457 
1181.262168  	83.390476 
1182.697480  	83.738238 
1184.132793  	83.699813 
1185.568105  	83.522195 
1187.003418  	83.220499 
1188.438730  	82.845440 
1189.874043  	82.473688 
1191.309355  	81.970663 
1192.744668  	81.435651 
1194.179980  	80.900242 
1195.615293  	80.287014 
1197.050605  	79.710651 
1198.485918  	79.089786 
1199.921230  	78.335281 
1201.356543  	77.461625 
1202.791855  	76.379811 
1204.227167  	75.238513 
1205.662480  	74.175960 
1207.097792  	73.148699 
1208.533105  	72.319918 
1209.968417  	71.752214 
1211.403730  	71.360215 
1212.839042  	71.188750 
1214.274355  	71.121796 
1215.709667  	71.110098 
1217.144980  	71.218562 
1218.580292  	71.364226 
1220.015605  	71.625826 
1221.450917  	71.951763 
1222.886230  	72.185923 
1224.321542  	72.500337 
1225.756855  	72.910192 
1227.192167  	73.386911 
1228.627480  	73.998503 
1230.062792  	74.579155 
1231.498105  	75.139210 
1232.933417  	75.705284 
1234.368729  	76.215696 
1235.804042  	76.850034 
1237.239354  	77.572798 
1238.674667  	78.318033 
1240.109979  	79.141062 
1241.545292  	79.868913 
1242.980604  	80.529615 
1244.415917  	81.161996 
1245.851229  	81.686553 
1247.286542  	82.244674 
1248.721854  	82.857731 
1250.157167  	83.593390 
1251.592479  	84.510964 
1253.027792  	85.396628 
1254.463104  	86.280384 
1255.898417  	87.124059 
1257.333729  	87.756013 
1258.769042  	88.296202 
1260.204354  	88.764253 
1261.639667  	89.199186 
1263.074979  	89.547389 
1264.510291  	89.648769 
1265.945604  	89.691428 
1267.380916  	89.589619 
1268.816229  	89.203449 
1270.251541  	88.736705 
1271.686854  	88.091022 
1273.122166  	87.287421 
1274.557479  	86.446081 
1275.992791  	85.444194 
1277.428104  	84.453549 
1278.863416  	83.537832 
1280.298729  	82.588856 
1281.734041  	81.799528 
1283.169354  	81.141630 
1284.604666  	80.503405 
1286.039979  	79.939092 
1287.475291  	79.342377 
1288.910604  	78.817141 
1290.345916  	78.458385 
1291.781229  	78.092378 
1293.216541  	77.768828 
1294.651853  	77.436336 
1296.087166  	77.057953 
1297.522478  	76.849306 
1298.957791  	76.695176 
1300.393103  	76.568746 
1301.828416  	76.567647 
1303.263728  	76.457976 
1304.699041  	76.305016 
1306.134353  	76.215697 
1307.569666  	76.110733 
1309.004978  	76.163055 
1310.440291  	76.284183 
1311.875603  	76.398528 
1313.310916  	76.676368 
1314.746228  	76.904245 
1316.181541  	77.004954 
1317.616853  	76.993600 
1319.052166  	76.793991 
1320.487478  	76.641901 
1321.922791  	76.501415 
1323.358103  	76.381315 
1324.793415  	76.555669 
1326.228728  	76.870930 
1327.664040  	77.330177 
1329.099353  	77.968690 
1330.534665  	78.531488 
1331.969978  	79.170218 
1333.405290  	79.805564 
1334.840603  	80.555001 
1336.275915  	81.920167 
1337.711228  	83.509673 
1339.146540  	85.459234 
1340.581853  	87.860317 
1342.017165  	89.226475 
1343.452478  	89.707830 
1344.887790  	89.624091 
1346.323103  	89.018442 
1347.758415  	88.138029 
1349.193728  	87.033703 
1350.629040  	86.029555 
1352.064353  	85.105111 
1353.499665  	84.125692 
1354.934977  	83.230430 
1356.370290  	82.239350 
1357.805602  	81.173172 
1359.240915  	80.139771 
1360.676227  	78.970530 
1362.111540  	77.746464 
1363.546852  	76.700313 
1364.982165  	75.817459 
1366.417477  	74.955509 
1367.852790  	74.140570 
1369.288102  	73.559892 
1370.723415  	73.171821 
1372.158727  	72.740018 
1373.594040  	72.337396 
1375.029352  	72.083636 
1376.464665  	71.681773 
1377.899977  	71.219718 
1379.335290  	70.910226 
1380.770602  	70.564141 
1382.205915  	70.188010 
1383.641227  	69.927655 
1385.076539  	69.646925 
1386.511852  	69.502271 
1387.947164  	69.627790 
1389.382477  	69.493080 
1390.817789  	69.026544 
1392.253102  	68.394471 
1393.688414  	67.895806 
1395.123727  	67.728800 
1396.559039  	67.462933 
1397.994352  	67.156927 
1399.429664  	66.978635 
1400.864977  	66.441857 
1402.300289  	65.753598 
1403.735602  	65.236243 
1405.170914  	65.001985 
1406.606227  	64.980753 
1408.041539  	64.962211 
1409.476852  	64.998010 
1410.912164  	65.153998 
1412.347477  	65.271164 
1413.782789  	65.316358 
1415.218101  	65.234498 
1416.653414  	65.058460 
1418.088726  	65.210310 
1419.524039  	65.960078 
1420.959351  	66.494213 
1422.394664  	66.858092 
1423.829976  	67.806255 
1425.265289  	69.210824 
1426.700601  	70.024768 
1428.135914  	70.609436 
1429.571226  	70.997698 
1431.006539  	71.058695 
1432.441851  	70.894449 
1433.877164  	70.428695 
1435.312476  	70.000228 
1436.747789  	69.918089 
1438.183101  	69.753235 
1439.618414  	69.383054 
1441.053726  	69.119936 
1442.489039  	68.964728 
1443.924351  	68.807414 
1445.359663  	68.680681 
1446.794976  	68.636820 
1448.230288  	68.882216 
1449.665601  	69.190567 
1451.100913  	69.357334 
1452.536226  	69.768347 
1453.971538  	69.990926 
1455.406851  	69.856456 
1456.842163  	70.368385 
1458.277476  	70.925540 
1459.712788  	70.836593 
1461.148101  	71.049702 
1462.583413  	71.267643 
1464.018726  	71.851502 
1465.454038  	72.957899 
1466.889351  	73.497581 
1468.324663  	74.379915 
1469.759976  	75.669025 
1471.195288  	76.892012 
1472.630601  	79.244281 
1474.065913  	80.889945 
1475.501225  	81.267434 
1476.936538  	81.992610 
1478.371850  	82.088676 
1479.807163  	81.439875 
1481.242475  	80.403432 
1482.677788  	79.069074 
1484.113100  	77.575129 
1485.548413  	76.196289 
1486.983725  	75.210934 
1488.419038  	74.124118 
1489.854350  	73.070203 
1491.289663  	71.998028 
1492.724975  	70.615127 
1494.160288  	69.512492 
1495.595600  	68.542055 
1497.030913  	67.556314 
1498.466225  	66.797928 
1499.901538  	65.896531 
1501.336850  	65.067937 
1502.772163  	64.426540 
1504.207475  	63.788026 
1505.642787  	63.464751 
1507.078100  	63.159337 
1508.513412  	61.938443 
1509.948725  	61.257789 
1511.384037  	60.750419 
1512.819350  	60.423515 
1514.254662  	59.961209 
1515.689975  	59.478787 
1517.125287  	60.074943 
1518.560600  	60.281065 
1519.995912  	59.885428 
1521.431225  	60.818952 
1522.866537  	60.907263 
1524.301850  	60.070974 
1525.737162  	59.969792 
1527.172475  	59.708346 
1528.607787  	59.400119 
1530.043100  	59.071795 
1531.478412  	58.358531 
1532.913725  	58.201839 
1534.349037  	58.429519 
1535.784349  	57.674253 
1537.219662  	57.094804 
1538.654974  	56.841468 
1540.090287  	57.138440 
1541.525599  	56.787377 
1542.960912  	55.354659 
1544.396224  	54.453730 
1545.831537  	54.112898 
1547.266849  	53.591828 
1548.702162  	53.166679 
1550.137474  	53.269231 
1551.572787  	53.423761 
1553.008099  	53.488332 
1554.443412  	53.932885 
1555.878724  	54.284106 
1557.314037  	54.551215 
1558.749349  	56.106151 
1560.184662  	57.177611 
1561.619974  	56.415247 
1563.055287  	56.254888 
1564.490599  	56.705466 
1565.925911  	57.253953 
1567.361224  	57.382999 
1568.796536  	58.013951 
1570.231849  	59.073953 
1571.667161  	59.282209 
1573.102474  	59.507659 
1574.537786  	59.955557 
1575.973099  	61.050908 
1577.408411  	62.057315 
1578.843724  	61.935280 
1580.279036  	62.106822 
1581.714349  	62.492563 
1583.149661  	62.699781 
1584.584974  	62.953640 
1586.020286  	62.943515 
1587.455599  	62.855862 
1588.890911  	62.841884 
1590.326224  	62.705545 
1591.761536  	62.809663 
1593.196849  	62.854436 
1594.632161  	62.870372 
1596.067473  	63.012491 
1597.502786  	62.521141 
1598.938098  	61.818419 
1600.373411  	60.859491 
1601.808723  	59.379522 
1603.244036  	58.218279 
1604.679348  	56.881157 
1606.114661  	55.518679 
1607.549973  	54.472256 
1608.985286  	52.841549 
1610.420598  	51.274294 
1611.855911  	49.653002 
1613.291223  	47.597452 
1614.726536  	46.106522 
1616.161848  	44.614597 
1617.597161  	42.713329 
1619.032473  	41.268931 
1620.467786  	39.832668 
1621.903098  	38.987640 
1623.338411  	38.675021 
1624.773723  	37.958342 
1626.209035  	37.584789 
1627.644348  	37.426051 
1629.079660  	37.293955 
1630.514973  	37.296245 
1631.950285  	37.105051 
1633.385598  	37.028350 
1634.820910  	37.384960 
1636.256223  	37.963712 
1637.691535  	38.115915 
1639.126848  	37.913337 
1640.562160  	37.841071 
1641.997473  	38.089177 
1643.432785  	38.093115 
1644.868098  	38.170742 
1646.303410  	38.849455 
1647.738723  	39.430317 
1649.174035  	39.580626 
1650.609348  	39.525311 
1652.044660  	39.618957 
1653.479973  	42.414591 
1654.915285  	42.725531 
1656.350597  	42.502197 
1657.785910  	43.273538 
1659.221222  	44.107801 
1660.656535  	44.996373 
1662.091847  	46.260055 
1663.527160  	47.477805 
1664.962472  	48.405164 
1666.397785  	49.038282 
1667.833097  	49.700826 
1669.268410  	51.128731 
1670.703722  	52.403192 
1672.139035  	53.018739 
1673.574347  	53.634793 
1675.009660  	54.585238 
1676.444972  	56.193563 
1677.880285  	56.837403 
1679.315597  	57.391691 
1680.750910  	58.960222 
1682.186222  	59.941931 
1683.621535  	61.239783 
1685.056847  	65.308090 
1686.492159  	65.431732 
1687.927472  	65.744442 
1689.362784  	67.077535 
1690.798097  	68.153114 
1692.233409  	68.968348 
1693.668722  	69.317626 
1695.104034  	69.754296 
1696.539347  	71.600928 
1697.974659  	71.567084 
1699.409972  	71.306421 
1700.845284  	72.906766 
1702.280597  	72.097387 
1703.715909  	71.143804 
1705.151222  	71.068636 
1706.586534  	71.101612 
1708.021847  	70.724234 
1709.457159  	70.411102 
1710.892472  	70.221984 
1712.327784  	70.118736 
1713.763097  	70.272924 
1715.198409  	70.838977 
1716.633721  	71.389404 
1718.069034  	72.433491 
1719.504346  	73.521573 
1720.939659  	73.854127 
1722.374971  	74.585190 
1723.810284  	75.908659 
1725.245596  	77.045754 
1726.680909  	78.278372 
1728.116221  	79.413554 
1729.551534  	80.463299 
1730.986846  	82.093312 
1732.422159  	83.289430 
1733.857471  	84.721380 
1735.292784  	86.844790 
1736.728096  	86.987125 
1738.163409  	87.547805 
1739.598721  	88.871856 
1741.034034  	89.431795 
1742.469346  	89.962194 
1743.904659  	90.480184 
1745.339971  	90.818651 
1746.775283  	91.656788 
1748.210596  	92.237776 
1749.645908  	92.456125 
1751.081221  	92.842530 
1752.516533  	92.971753 
1753.951846  	93.348994 
1755.387158  	93.622242 
1756.822471  	93.665857 
1758.257783  	94.119280 
1759.693096  	94.324278 
1761.128408  	94.444955 
1762.563721  	94.811668 
1763.999033  	94.746592 
1765.434346  	94.815550 
1766.869658  	94.916997 
1768.304971  	94.787688 
1769.740283  	95.258255 
1771.175596  	95.857978 
1772.610908  	96.105844 
1774.046221  	96.007224 
1775.481533  	95.629137 
1776.916845  	95.534676 
1778.352158  	95.657663 
1779.787470  	95.636506 
1781.222783  	95.878960 
1782.658095  	95.906029 
1784.093408  	95.779180 
1785.528720  	95.976248 
1786.964033  	95.943532 
1788.399345  	95.959570 
1789.834658  	96.170687 
1791.269970  	96.218066 
1792.705283  	96.539635 
1794.140595  	96.511749 
1795.575908  	96.212530 
1797.011220  	96.354210 
1798.446533  	96.446389 
1799.881845  	96.461890 
1801.317158  	96.483552 
1802.752470  	96.332309 
1804.187783  	96.663729 
1805.623095  	96.902562 
1807.058407  	96.699821 
1808.493720  	96.863315 
1809.929032  	97.014909 
1811.364345  	97.008153 
1812.799657  	97.189941 
1814.234970  	97.180807 
1815.670282  	97.293953 
1817.105595  	97.329252 
1818.540907  	97.154829 
1819.976220  	97.444836 
1821.411532  	97.505297 
1822.846845  	97.360187 
1824.282157  	97.675879 
1825.717470  	97.657043 
1827.152782  	97.618494 
1828.588095  	97.945248 
1830.023407  	97.990367 
1831.458720  	97.895084 
1832.894032  	97.663952 
1834.329345  	97.543267 
1835.764657  	97.807253 
1837.199969  	97.736195 
1838.635282  	97.713847 
1840.070594  	97.857028 
1841.505907  	97.679928 
1842.941219  	97.956956 
1844.376532  	98.346397 
1845.811844  	97.955324 
1847.247157  	97.809128 
1848.682469  	97.699317 
1850.117782  	97.778817 
1851.553094  	97.995862 
1852.988407  	97.832149 
1854.423719  	97.912238 
1855.859032  	98.023105 
1857.294344  	97.866537 
1858.729657  	98.026829 
1860.164969  	97.982075 
1861.600282  	97.876760 
1863.035594  	98.037869 
1864.470907  	97.907065 
1865.906219  	98.047605 
1867.341531  	98.318803 
1868.776844  	98.100588 
1870.212156  	98.155641 
1871.647469  	98.106239 
1873.082781  	98.086377 
1874.518094  	98.344714 
1875.953406  	98.188711 
1877.388719  	98.212434 
1878.824031  	98.364723 
1880.259344  	98.120265 
1881.694656  	98.314004 
1883.129969  	98.466281 
1884.565281  	98.333441 
1886.000594  	98.510239 
1887.435906  	98.395764 
1888.871219  	98.411566 
1890.306531  	98.728664 
1891.741844  	98.556681 
1893.177156  	98.645032 
1894.612469  	98.701562 
1896.047781  	98.488466 
1897.483093  	98.688424 
1898.918406  	98.634182 
1900.353718  	98.563389 
1901.789031  	98.737600 
1903.224343  	98.598240 
1904.659656  	98.802064 
1906.094968  	98.962871 
1907.530281  	98.746043 
1908.965593  	98.971288 
1910.400906  	98.923196 
1911.836218  	98.786463 
1913.271531  	99.019270 
1914.706843  	98.883300 
1916.142156  	99.012587 
1917.577468  	99.261259 
1919.012781  	98.986968 
1920.448093  	99.072946 
1921.883406  	98.975990 
1923.318718  	98.856432 
1924.754031  	99.204435 
1926.189343  	99.031772 
1927.624655  	99.040791 
1929.059968  	99.297297 
1930.495280  	99.123971 
1931.930593  	99.256662 
1933.365905  	99.215826 
1934.801218  	99.097883 
1936.236530  	99.355382 
1937.671843  	98.996771 
1939.107155  	98.859536 
1940.542468  	99.023236 
1941.977780  	98.681278 
1943.413093  	99.049350 
1944.848405  	99.210192 
1946.283718  	98.875869 
1947.719030  	99.140403 
1949.154343  	98.937729 
1950.589655  	98.800755 
1952.024968  	99.021638 
1953.460280  	98.708949 
1954.895592  	99.047780 
1956.330905  	99.238685 
1957.766217  	98.816786 
1959.201530  	99.147582 
1960.636842  	98.998788 
1962.072155  	98.979003 
1963.507467  	99.565225 
1964.942780  	99.099683 
1966.378092  	99.040989 
1967.813405  	99.069721 
1969.248717  	98.623982 
1970.684030  	99.199698 
1972.119342  	98.988327 
1973.554655  	98.569200 
1974.989967  	99.100129 
1976.425280  	98.656573 
1977.860592  	98.678799 
1979.295905  	98.931562 
1980.731217  	98.434486 
1982.166530  	98.841294 
1983.601842  	98.808039 
1985.037154  	98.445571 
1986.472467  	98.747002 
1987.907779  	98.465083 
1989.343092  	98.677464 
1990.778404  	99.079816 
1992.213717  	98.619207 
1993.649029  	98.883678 
1995.084342  	98.776741 
1996.519654  	98.326448 
1997.954967  	98.658550 
1999.390279  	98.447927 
2000.825592  	98.568832 
2002.260904  	98.934775 
2003.696217  	98.308513 
2005.131529  	98.577497 
2006.566842  	98.896874 
2008.002154  	98.487337 
2009.437467  	98.904006 
2010.872779  	98.669852 
2012.308092  	98.300646 
2013.743404  	98.396576 
2015.178716  	98.005100 
2016.614029  	98.510869 
2018.049341  	98.673331 
2019.484654  	98.038122 
2020.919966  	98.624132 
2022.355279  	98.651127 
2023.790591  	98.371636 
2025.225904  	98.711702 
2026.661216  	98.268907 
2028.096529  	98.467695 
2029.531841  	98.691570 
2030.967154  	98.059853 
2032.402466  	98.517082 
2033.837779  	98.702182 
2035.273091  	98.403235 
2036.708404  	98.613790 
2038.143716  	98.266547 
2039.579029  	98.395087 
2041.014341  	98.614967 
2042.449654  	98.202143 
2043.884966  	98.562055 
2045.320278  	98.624884 
2046.755591  	98.384585 
2048.190903  	98.654031 
2049.626216  	98.355210 
2051.061528  	98.370556 
2052.496841  	98.654281 
2053.932153  	98.391056 
2055.367466  	98.412541 
2056.802778  	98.249117 
2058.238091  	98.068074 
2059.673403  	98.449802 
2061.108716  	98.267724 
2062.544028  	98.061922 
2063.979341  	98.178777 
2065.414653  	97.911744 
2066.849966  	98.003722 
2068.285278  	98.136724 
2069.720591  	98.056647 
2071.155903  	98.280965 
2072.591216  	98.098926 
2074.026528  	97.907007 
2075.461840  	98.105534 
2076.897153  	98.069699 
2078.332465  	98.137046 
2079.767778  	98.086079 
2081.203090  	97.900717 
2082.638403  	98.036058 
2084.073715  	97.851240 
2085.509028  	97.660697 
2086.944340  	97.758273 
2088.379653  	97.624733 
2089.814965  	97.752424 
2091.250278  	97.907585 
2092.685590  	97.776650 
2094.120903  	97.904397 
2095.556215  	97.842568 
2096.991528  	97.694108 
2098.426840  	97.677821 
2099.862153  	97.422224 
2101.297465  	97.580663 
2102.732778  	97.764274 
2104.168090  	97.505589 
2105.603402  	97.705655 
2107.038715  	97.876711 
2108.474027  	97.693055 
2109.909340  	97.715087 
2111.344652  	97.712685 
2112.779965  	97.783598 
2114.215277  	97.759184 
2115.650590  	97.541923 
2117.085902  	97.622268 
2118.521215  	97.591588 
2119.956527  	97.575266 
2121.391840  	97.721315 
2122.827152  	97.423527 
2124.262465  	97.414249 
2125.697777  	97.660528 
2127.133090  	97.499472 
2128.568402  	97.676209 
2130.003715  	97.781305 
2131.439027  	97.614438 
2132.874340  	97.779901 
2134.309652  	97.511776 
2135.744964  	97.386018 
2137.180277  	97.704535 
2138.615589  	97.496047 
2140.050902  	97.670913 
2141.486214  	97.836400 
2142.921527  	97.505557 
2144.356839  	97.675536 
2145.792152  	97.401326 
2147.227464  	97.129370 
2148.662777  	97.578555 
2150.098089  	97.378244 
2151.533402  	97.343827 
2152.968714  	97.564391 
2154.404027  	97.433091 
2155.839339  	97.887403 
2157.274652  	97.692132 
2158.709964  	97.313938 
2160.145277  	97.764266 
2161.580589  	97.162902 
2163.015902  	96.935923 
2164.451214  	97.224389 
2165.886526  	97.028924 
2167.321839  	97.397733 
2168.757151  	97.372173 
2170.192464  	97.097217 
2171.627776  	97.460262 
2173.063089  	97.360258 
2174.498401  	97.468159 
2175.933714  	97.726124 
2177.369026  	97.398672 
2178.804339  	97.618145 
2180.239651  	97.654667 
2181.674964  	97.559320 
2183.110276  	98.038914 
2184.545589  	97.750801 
2185.980901  	97.550440 
2187.416214  	97.642094 
2188.851526  	97.222549 
2190.286839  	97.482068 
2191.722151  	97.628777 
2193.157464  	97.358016 
2194.592776  	97.790043 
2196.028088  	97.742220 
2197.463401  	97.548654 
2198.898713  	97.796977 
2200.334026  	97.523708 
2201.769338  	97.553917 
2203.204651  	97.737291 
2204.639963  	97.592948 
2206.075276  	97.895638 
2207.510588  	97.805820 
2208.945901  	97.498879 
2210.381213  	97.692746 
2211.816526  	97.653437 
2213.251838  	97.717906 
2214.687151  	97.655296 
2216.122463  	97.255979 
2217.557776  	97.455356 
2218.993088  	97.574030 
2220.428401  	97.487529 
2221.863713  	97.648654 
2223.299026  	97.445313 
2224.734338  	97.446233 
2226.169650  	97.597892 
2227.604963  	97.398555 
2229.040275  	97.530614 
2230.475588  	97.489696 
2231.910900  	97.272667 
2233.346213  	97.462633 
2234.781525  	97.391732 
2236.216838  	97.394546 
2237.652150  	97.547083 
2239.087463  	97.350935 
2240.522775  	97.446293 
2241.958088  	97.518688 
2243.393400  	97.424776 
2244.828713  	97.654942 
2246.264025  	97.581470 
2247.699338  	97.504462 
2249.134650  	97.682492 
2250.569963  	97.517171 
2252.005275  	97.489722 
2253.440588  	97.509083 
2254.875900  	97.372836 
2256.311212  	97.581678 
2257.746525  	97.645287 
2259.181837  	97.600681 
2260.617150  	97.733259 
2262.052462  	97.652222 
2263.487775  	97.739567 
2264.923087  	97.907214 
2266.358400  	97.801982 
2267.793712  	97.772983 
2269.229025  	97.669415 
2270.664337  	97.667741 
2272.099650  	97.817837 
2273.534962  	97.627036 
2274.970275  	97.537807 
2276.405587  	97.605272 
2277.840900  	97.530188 
2279.276212  	97.585745 
2280.711525  	97.519175 
2282.146837  	97.385591 
2283.582150  	97.407890 
2285.017462  	97.298788 
2286.452774  	97.329251 
2287.888087  	97.459753 
2289.323399  	97.365253 
2290.758712  	97.370941 
2292.194024  	97.420240 
2293.629337  	97.475344 
2295.064649  	97.635719 
2296.499962  	97.599923 
2297.935274  	97.602225 
2299.370587  	97.696836 
2300.805899  	97.667551 
2302.241212  	97.810195 
2303.676524  	97.852604 
2305.111837  	97.757460 
2306.547149  	97.981861 
2307.982462  	98.153785 
2309.417774  	98.287857 
2310.853087  	98.576072 
2312.288399  	98.660383 
2313.723712  	98.825641 
2315.159024  	98.967824 
2316.594336  	98.969920 
2318.029649  	99.354100 
2319.464961  	99.809576 
2320.900274  	100.233514 
2322.335586  	100.730231 
2323.770899  	100.822130 
2325.206211  	101.090286 
2326.641524  	101.642463 
2328.076836  	102.092957 
2329.512149  	102.544368 
2330.947461  	102.571569 
2332.382774  	102.659868 
2333.818086  	102.969766 
2335.253399  	102.856836 
2336.688711  	103.192698 
2338.124024  	103.423662 
2339.559336  	102.928810 
2340.994649  	103.288654 
2342.429961  	103.622157 
2343.865274  	103.106029 
2345.300586  	102.491948 
2346.735898  	100.878429 
2348.171211  	99.549603 
2349.606523  	99.406384 
2351.041836  	100.235983 
2352.477148  	101.792718 
2353.912461  	102.860019 
2355.347773  	103.872482 
2356.783086  	105.514741 
2358.218398  	106.112689 
2359.653711  	106.558389 
2361.089023  	106.707760 
2362.524336  	106.214097 
2363.959648  	106.530238 
2365.394961  	105.975653 
2366.830273  	105.080929 
2368.265586  	104.802443 
2369.700898  	103.489959 
2371.136211  	101.993594 
2372.571523  	100.998164 
2374.006836  	100.039043 
2375.442148  	99.394856 
2376.877460  	98.716346 
2378.312773  	97.874152 
2379.748085  	97.261426 
2381.183398  	96.721645 
2382.618710  	96.317225 
2384.054023  	96.127143 
2385.489335  	95.921498 
2386.924648  	95.814615 
2388.359960  	95.817524 
2389.795273  	95.791533 
2391.230585  	95.801463 
2392.665898  	95.755276 
2394.101210  	95.740301 
2395.536523  	95.822634 
2396.971835  	95.766051 
2398.407148  	95.743350 
2399.842460  	95.802727 
2401.277773  	95.756090 
2402.713085  	95.772325 
2404.148398  	95.759504 
2405.583710  	95.668015 
2407.019022  	95.695943 
2408.454335  	95.673138 
2409.889647  	95.601175 
2411.324960  	95.566623 
2412.760272  	95.473174 
2414.195585  	95.443818 
2415.630897  	95.435826 
2417.066210  	95.393474 
2418.501522  	95.394319 
2419.936835  	95.311888 
2421.372147  	95.242390 
2422.807460  	95.232322 
2424.242772  	95.164273 
2425.678085  	95.175911 
2427.113397  	95.164218 
2428.548710  	95.079950 
2429.984022  	95.084081 
2431.419335  	95.027114 
2432.854647  	94.981225 
2434.289960  	95.008638 
2435.725272  	94.954856 
2437.160584  	94.980010 
2438.595897  	94.989839 
2440.031209  	94.886536 
2441.466522  	94.872269 
2442.901834  	94.811476 
2444.337147  	94.778729 
2445.772459  	94.869315 
2447.207772  	94.807966 
2448.643084  	94.739608 
2450.078397  	94.738222 
2451.513709  	94.672593 
2452.949022  	94.674545 
2454.384334  	94.652697 
2455.819647  	94.616595 
2457.254959  	94.634586 
2458.690272  	94.534379 
2460.125584  	94.492055 
2461.560897  	94.527550 
2462.996209  	94.477628 
2464.431522  	94.490534 
2465.866834  	94.438291 
2467.302146  	94.344506 
2468.737459  	94.405162 
2470.172771  	94.370392 
2471.608084  	94.306242 
2473.043396  	94.333579 
2474.478709  	94.247824 
2475.914021  	94.172638 
2477.349334  	94.155030 
2478.784646  	94.133782 
2480.219959  	94.128841 
2481.655271  	94.027426 
2483.090584  	94.003401 
2484.525896  	94.059014 
2485.961209  	93.957179 
2487.396521  	93.903816 
2488.831834  	93.881182 
2490.267146  	93.783931 
2491.702459  	93.778747 
2493.137771  	93.736607 
2494.573084  	93.692831 
2496.008396  	93.698608 
2497.443708  	93.568088 
2498.879021  	93.518514 
2500.314333  	93.530732 
2501.749646  	93.418434 
2503.184958  	93.415591 
2504.620271  	93.422111 
2506.055583  	93.340022 
2507.490896  	93.343288 
2508.926208  	93.306805 
2510.361521  	93.229087 
2511.796833  	93.170022 
2513.232146  	93.110823 
2514.667458  	93.160113 
2516.102771  	93.159350 
2517.538083  	93.045634 
2518.973396  	92.987248 
2520.408708  	92.939920 
2521.844021  	92.939514 
2523.279333  	92.948150 
2524.714646  	92.872687 
2526.149958  	92.823369 
2527.585270  	92.735123 
2529.020583  	92.685621 
2530.455895  	92.778729 
2531.891208  	92.751284 
2533.326520  	92.660260 
2534.761833  	92.637119 
2536.197145  	92.587620 
2537.632458  	92.586788 
2539.067770  	92.570605 
2540.503083  	92.524009 
2541.938395  	92.511537 
2543.373708  	92.408474 
2544.809020  	92.370882 
2546.244333  	92.391149 
2547.679645  	92.257073 
2549.114958  	92.173932 
2550.550270  	92.118969 
2551.985583  	92.009570 
2553.420895  	92.010284 
2554.856208  	91.968990 
2556.291520  	91.889985 
2557.726832  	91.859169 
2559.162145  	91.762109 
2560.597457  	91.752028 
2562.032770  	91.754860 
2563.468082  	91.644259 
2564.903395  	91.618410 
2566.338707  	91.543205 
2567.774020  	91.412464 
2569.209332  	91.385852 
2570.644645  	91.285658 
2572.079957  	91.192483 
2573.515270  	91.156831 
2574.950582  	91.044800 
2576.385895  	91.008659 
2577.821207  	90.969166 
2579.256520  	90.827696 
2580.691832  	90.741426 
2582.127145  	90.661739 
2583.562457  	90.614676 
2584.997770  	90.592941 
2586.433082  	90.474745 
2587.868394  	90.390190 
2589.303707  	90.324407 
2590.739019  	90.245615 
2592.174332  	90.247344 
2593.609644  	90.176697 
2595.044957  	90.066073 
2596.480269  	90.033397 
2597.915582  	89.968542 
2599.350894  	89.920364 
2600.786207  	89.897528 
2602.221519  	89.847935 
2603.656832  	89.807169 
2605.092144  	89.712554 
2606.527457  	89.655285 
2607.962769  	89.653994 
2609.398082  	89.549196 
2610.833394  	89.469007 
2612.268707  	89.458052 
2613.704019  	89.424812 
2615.139332  	89.393312 
2616.574644  	89.262811 
2618.009956  	89.126381 
2619.445269  	89.120696 
2620.880581  	89.064602 
2622.315894  	88.975828 
2623.751206  	88.939200 
2625.186519  	88.889979 
2626.621831  	88.871853 
2628.057144  	88.829465 
2629.492456  	88.733386 
2630.927769  	88.663846 
2632.363081  	88.578862 
2633.798394  	88.514480 
2635.233706  	88.472157 
2636.669019  	88.376476 
2638.104331  	88.303974 
2639.539644  	88.242946 
2640.974956  	88.160774 
2642.410269  	88.096646 
2643.845581  	87.988914 
2645.280894  	87.867777 
2646.716206  	87.766947 
2648.151518  	87.661196 
2649.586831  	87.614699 
2651.022143  	87.552913 
2652.457456  	87.433806 
2653.892768  	87.354994 
2655.328081  	87.252209 
2656.763393  	87.142746 
2658.198706  	87.099169 
2659.634018  	87.028624 
2661.069331  	86.959427 
2662.504643  	86.926820 
2663.939956  	86.869782 
2665.375268  	86.821957 
2666.810581  	86.770797 
2668.245893  	86.710906 
2669.681206  	86.687605 
2671.116518  	86.657576 
2672.551831  	86.626908 
2673.987143  	86.606307 
2675.422456  	86.570130 
2676.857768  	86.549039 
2678.293080  	86.515719 
2679.728393  	86.478330 
2681.163705  	86.469305 
2682.599018  	86.418946 
2684.034330  	86.351609 
2685.469643  	86.308938 
2686.904955  	86.254074 
2688.340268  	86.198671 
2689.775580  	86.133411 
2691.210893  	86.085628 
2692.646205  	86.061436 
2694.081518  	85.965172 
2695.516830  	85.861806 
2696.952143  	85.823695 
2698.387455  	85.777031 
2699.822768  	85.723912 
2701.258080  	85.663781 
2702.693393  	85.603830 
2704.128705  	85.576058 
2705.564018  	85.514956 
2706.999330  	85.437919 
2708.434642  	85.372973 
2709.869955  	85.284968 
2711.305267  	85.238243 
2712.740580  	85.199891 
2714.175892  	85.118272 
2715.611205  	85.069448 
2717.046517  	85.008321 
2718.481830  	84.915991 
2719.917142  	84.850858 
2721.352455  	84.776500 
2722.787767  	84.712388 
2724.223080  	84.652992 
2725.658392  	84.559488 
2727.093705  	84.483866 
2728.529017  	84.388985 
2729.964330  	84.266551 
2731.399642  	84.187861 
2732.834955  	84.105131 
2734.270267  	84.002735 
2735.705580  	83.900750 
2737.140892  	83.787004 
2738.576204  	83.689089 
2740.011517  	83.574580 
2741.446829  	83.444635 
2742.882142  	83.344442 
2744.317454  	83.230460 
2745.752767  	83.119238 
2747.188079  	83.025444 
2748.623392  	82.924810 
2750.058704  	82.860662 
2751.494017  	82.784340 
2752.929329  	82.675404 
2754.364642  	82.597597 
2755.799954  	82.499126 
2757.235267  	82.398051 
2758.670579  	82.328406 
2760.105892  	82.210933 
2761.541204  	82.077432 
2762.976517  	81.959939 
2764.411829  	81.842467 
2765.847142  	81.744633 
2767.282454  	81.613799 
2768.717766  	81.472957 
2770.153079  	81.362099 
2771.588391  	81.210700 
2773.023704  	81.067218 
2774.459016  	80.967983 
2775.894329  	80.854594 
2777.329641  	80.738290 
2778.764954  	80.600579 
2780.200266  	80.464419 
2781.635579  	80.363038 
2783.070891  	80.225435 
2784.506204  	80.090922 
2785.941516  	79.985472 
2787.376829  	79.853522 
2788.812141  	79.746385 
2790.247454  	79.646386 
2791.682766  	79.525885 
2793.118079  	79.436822 
2794.553391  	79.353419 
2795.988704  	79.313952 
2797.424016  	79.313191 
2798.859328  	79.250914 
2800.294641  	79.205876 
2801.729953  	79.200153 
2803.165266  	79.165734 
2804.600578  	79.158586 
2806.035891  	79.171467 
2807.471203  	79.197888 
2808.906516  	79.245441 
2810.341828  	79.248594 
2811.777141  	79.262784 
2813.212453  	79.303572 
2814.647766  	79.315743 
2816.083078  	79.350011 
2817.518391  	79.371445 
2818.953703  	79.363826 
2820.389016  	79.392117 
2821.824328  	79.416568 
2823.259641  	79.440941 
2824.694953  	79.462196 
2826.130266  	79.454875 
2827.565578  	79.505519 
2829.000890  	79.575266 
2830.436203  	79.597805 
2831.871515  	79.653186 
2833.306828  	79.733243 
2834.742140  	79.781021 
2836.177453  	79.795093 
2837.612765  	79.814755 
2839.048078  	79.835988 
2840.483390  	79.763101 
2841.918703  	79.696847 
2843.354015  	79.678528 
2844.789328  	79.376746 
2846.224640  	78.746625 
2847.659953  	78.086407 
2849.095265  	77.532191 
2850.530578  	77.178266 
2851.965890  	77.068481 
2853.401203  	77.141771 
2854.836515  	77.343960 
2856.271828  	77.534672 
2857.707140  	77.678681 
2859.142452  	77.828631 
2860.577765  	77.906063 
2862.013077  	77.917696 
2863.448390  	77.890054 
2864.883702  	77.780478 
2866.319015  	77.632377 
2867.754327  	77.450177 
2869.189640  	77.244120 
2870.624952  	77.075485 
2872.060265  	76.922339 
2873.495577  	76.798593 
2874.930890  	76.716123 
2876.366202  	76.659002 
2877.801515  	76.682610 
2879.236827  	76.738975 
2880.672140  	76.765840 
2882.107452  	76.784215 
2883.542765  	76.755954 
2884.978077  	76.722667 
2886.413390  	76.730424 
2887.848702  	76.696056 
2889.284014  	76.623587 
2890.719327  	76.590810 
2892.154639  	76.611288 
2893.589952  	76.593810 
2895.025264  	76.481041 
2896.460577  	76.400673 
2897.895889  	76.351127 
2899.331202  	76.235735 
2900.766514  	76.145132 
2902.201827  	76.045575 
2903.637139  	75.846950 
2905.072452  	75.635950 
2906.507764  	75.420027 
2907.943077  	75.193484 
2909.378389  	74.953442 
2910.813702  	74.612796 
2912.249014  	74.219368 
2913.684327  	73.817481 
2915.119639  	73.407478 
2916.554952  	73.105882 
2917.990264  	72.918584 
2919.425576  	72.803091 
2920.860889  	72.782676 
2922.296201  	72.825073 
2923.731514  	72.935933 
2925.166826  	73.033607 
2926.602139  	73.077168 
2928.037451  	73.243260 
2929.472764  	73.469994 
2930.908076  	73.642138 
2932.343389  	73.885609 
2933.778701  	74.180810 
2935.214014  	74.474766 
2936.649326  	74.768635 
2938.084639  	74.984651 
2939.519951  	75.166945 
2940.955264  	75.368845 
2942.390576  	75.552279 
2943.825889  	75.690408 
2945.261201  	75.743235 
2946.696514  	75.755072 
2948.131826  	75.748803 
2949.567138  	75.646818 
2951.002451  	75.470508 
2952.437763  	75.254084 
2953.873076  	74.989162 
2955.308388  	74.725190 
2956.743701  	74.522048 
2958.179013  	74.392219 
2959.614326  	74.245445 
2961.049638  	74.089434 
2962.484951  	74.073798 
2963.920263  	74.117488 
2965.355576  	74.139826 
2966.790888  	74.224476 
2968.226201  	74.255690 
2969.661513  	74.218266 
2971.096826  	74.296110 
2972.532138  	74.441101 
2973.967451  	74.513296 
2975.402763  	74.482872 
2976.838076  	74.419684 
2978.273388  	74.434598 
2979.708700  	74.553684 
2981.144013  	74.724345 
2982.579325  	74.759560 
2984.014638  	74.601244 
2985.449950  	74.527236 
2986.885263  	74.566682 
2988.320575  	74.519046 
2989.755888  	74.442267 
2991.191200  	74.408085 
2992.626513  	74.385368 
2994.061825  	74.334932 
2995.497138  	74.243324 
2996.932450  	74.186420 
2998.367763  	74.104324 
2999.803075  	73.987762 
3001.238388  	73.970270 
3002.673700  	73.922187 
3004.109013  	73.835670 
3005.544325  	73.859231 
3006.979638  	73.811901 
3008.414950  	73.715199 
3009.850262  	73.738542 
3011.285575  	73.719967 
3012.720887  	73.635426 
3014.156200  	73.578367 
3015.591512  	73.526431 
3017.026825  	73.494616 
3018.462137  	73.400873 
3019.897450  	73.270658 
3021.332762  	73.247155 
3022.768075  	73.231602 
3024.203387  	73.147774 
3025.638700  	73.041498 
3027.074012  	72.924161 
3028.509325  	72.850952 
3029.944637  	72.821659 
3031.379950  	72.811994 
3032.815262  	72.795438 
3034.250575  	72.708900 
3035.685887  	72.616862 
3037.121200  	72.531324 
3038.556512  	72.410937 
3039.991824  	72.348226 
3041.427137  	72.305638 
3042.862449  	72.197343 
3044.297762  	72.060851 
3045.733074  	71.896734 
3047.168387  	71.759664 
3048.603699  	71.673643 
3050.039012  	71.576314 
3051.474324  	71.494779 
3052.909637  	71.417680 
3054.344949  	71.353515 
3055.780262  	71.337503 
3057.215574  	71.280817 
3058.650887  	71.203682 
3060.086199  	71.131629 
3061.521512  	71.028073 
3062.956824  	70.993990 
3064.392137  	70.979440 
3065.827449  	70.914204 
3067.262762  	70.900974 
3068.698074  	70.854440 
3070.133386  	70.748850 
3071.568699  	70.685569 
3073.004011  	70.600348 
3074.439324  	70.523111 
3075.874636  	70.497040 
3077.309949  	70.458069 
3078.745261  	70.422845 
3080.180574  	70.339510 
3081.615886  	70.213021 
3083.051199  	70.139067 
3084.486511  	70.048837 
3085.921824  	69.945512 
3087.357136  	69.902442 
3088.792449  	69.877209 
3090.227761  	69.839101 
3091.663074  	69.765069 
3093.098386  	69.691831 
3094.533699  	69.656091 
3095.969011  	69.613809 
3097.404324  	69.608945 
3098.839636  	69.616059 
3100.274948  	69.571009 
3101.710261  	69.531991 
3103.145573  	69.454246 
3104.580886  	69.353516 
3106.016198  	69.313487 
3107.451511  	69.260901 
3108.886823  	69.205462 
3110.322136  	69.129170 
3111.757448  	68.996220 
3113.192761  	68.941656 
3114.628073  	68.880177 
3116.063386  	68.734378 
3117.498698  	68.640194 
3118.934011  	68.518827 
3120.369323  	68.367860 
3121.804636  	68.267004 
3123.239948  	68.120306 
3124.675261  	67.992243 
3126.110573  	67.895567 
3127.545886  	67.756657 
3128.981198  	67.670136 
3130.416510  	67.586420 
3131.851823  	67.500161 
3133.287135  	67.485320 
3134.722448  	67.408140 
3136.157760  	67.325722 
3137.593073  	67.332048 
3139.028385  	67.315736 
3140.463698  	67.295613 
3141.899010  	67.257207 
3143.334323  	67.180202 
3144.769635  	67.135766 
3146.204948  	67.055099 
3147.640260  	66.969877 
3149.075573  	66.941095 
3150.510885  	66.883030 
3151.946198  	66.826058 
3153.381510  	66.757943 
3154.816823  	66.640779 
3156.252135  	66.542658 
3157.687448  	66.437980 
3159.122760  	66.359401 
3160.558072  	66.319890 
3161.993385  	66.222975 
3163.428697  	66.130048 
3164.864010  	66.043945 
3166.299322  	65.933807 
3167.734635  	65.880131 
3169.169947  	65.805798 
3170.605260  	65.696601 
3172.040572  	65.625748 
3173.475885  	65.531902 
3174.911197  	65.442111 
3176.346510  	65.363969 
3177.781822  	65.278033 
3179.217135  	65.239745 
3180.652447  	65.156438 
3182.087760  	65.044896 
3183.523072  	65.009110 
3184.958385  	64.950599 
3186.393697  	64.870115 
3187.829010  	64.814036 
3189.264322  	64.743249 
3190.699634  	64.675387 
3192.134947  	64.594448 
3193.570259  	64.547502 
3195.005572  	64.535755 
3196.440884  	64.472830 
3197.876197  	64.459578 
3199.311509  	64.458205 
3200.746822  	64.377606 
3202.182134  	64.345830 
3203.617447  	64.298040 
3205.052759  	64.227728 
3206.488072  	64.244003 
3207.923384  	64.204257 
3209.358697  	64.130664 
3210.794009  	64.095291 
3212.229322  	64.030062 
3213.664634  	64.018696 
3215.099947  	63.978938 
3216.535259  	63.875983 
3217.970572  	63.895468 
3219.405884  	63.911901 
3220.841196  	63.844199 
3222.276509  	63.785198 
3223.711821  	63.690370 
3225.147134  	63.628827 
3226.582446  	63.586084 
3228.017759  	63.482121 
3229.453071  	63.427454 
3230.888384  	63.400760 
3232.323696  	63.372483 
3233.759009  	63.340035 
3235.194321  	63.215306 
3236.629634  	63.113710 
3238.064946  	63.061682 
3239.500259  	62.965762 
3240.935571  	62.890381 
3242.370884  	62.793920 
3243.806196  	62.708320 
3245.241509  	62.696862 
3246.676821  	62.618631 
3248.112134  	62.527858 
3249.547446  	62.440231 
3250.982758  	62.268158 
3252.418071  	62.165834 
3253.853383  	62.108107 
3255.288696  	62.000876 
3256.724008  	61.917167 
3258.159321  	61.797358 
3259.594633  	61.680781 
3261.029946  	61.610330 
3262.465258  	61.508418 
3263.900571  	61.451531 
3265.335883  	61.386880 
3266.771196  	61.262528 
3268.206508  	61.218850 
3269.641821  	61.223184 
3271.077133  	61.242461 
3272.512446  	61.254649 
3273.947758  	61.206114 
3275.383071  	61.218621 
3276.818383  	61.237532 
3278.253695  	61.197223 
3279.689008  	61.232180 
3281.124320  	61.279658 
3282.559633  	61.327077 
3283.994945  	61.413096 
3285.430258  	61.453842 
3286.865570  	61.536344 
3288.300883  	61.639314 
3289.736195  	61.703342 
3291.171508  	61.848109 
3292.606820  	61.973659 
3294.042133  	62.055102 
3295.477445  	62.186119 
3296.912758  	62.251606 
3298.348070  	62.313446 
3299.783383  	62.425393 
3301.218695  	62.499336 
3302.654008  	62.645998 
3304.089320  	62.837557 
3305.524633  	62.963184 
3306.959945  	63.077009 
3308.395257  	63.152471 
3309.830570  	63.194553 
3311.265882  	63.250851 
3312.701195  	63.332014 
3314.136507  	63.461364 
3315.571820  	63.544813 
3317.007132  	63.598330 
3318.442445  	63.708812 
3319.877757  	63.795107 
3321.313070  	63.880273 
3322.748382  	63.981978 
3324.183695  	64.055845 
3325.619007  	64.164947 
3327.054320  	64.239036 
3328.489632  	64.265268 
3329.924945  	64.338400 
3331.360257  	64.390830 
3332.795570  	64.454468 
3334.230882  	64.539153 
3335.666195  	64.562148 
3337.101507  	64.623827 
3338.536819  	64.712063 
3339.972132  	64.765888 
3341.407444  	64.836495 
3342.842757  	64.864443 
3344.278069  	64.886572 
3345.713382  	64.944798 
3347.148694  	64.980178 
3348.584007  	65.065848 
3350.019319  	65.165951 
3351.454632  	65.222928 
3352.889944  	65.294930 
3354.325257  	65.319103 
3355.760569  	65.334445 
3357.195882  	65.389923 
3358.631194  	65.417799 
3360.066507  	65.489794 
3361.501819  	65.570206 
3362.937132  	65.610899 
3364.372444  	65.694294 
3365.807757  	65.737288 
3367.243069  	65.778591 
3368.678381  	65.886743 
3370.113694  	65.924259 
3371.549006  	65.949088 
3372.984319  	65.998594 
3374.419631  	66.015403 
3375.854944  	66.085260 
3377.290256  	66.161977 
3378.725569  	66.212407 
3380.160881  	66.272711 
3381.596194  	66.293643 
3383.031506  	66.362846 
3384.466819  	66.467008 
3385.902131  	66.518700 
3387.337444  	66.607211 
3388.772756  	66.667143 
3390.208069  	66.679319 
3391.643381  	66.753748 
3393.078694  	66.827260 
3394.514006  	66.918003 
3395.949319  	67.031580 
3397.384631  	67.092517 
3398.819943  	67.171446 
3400.255256  	67.248012 
3401.690568  	67.307868 
3403.125881  	67.407079 
3404.561193  	67.485654 
3405.996506  	67.574756 
3407.431818  	67.670856 
3408.867131  	67.740216 
3410.302443  	67.862650 
3411.737756  	67.950144 
3413.173068  	67.998411 
3414.608381  	68.114104 
3416.043693  	68.208367 
3417.479006  	68.304205 
3418.914318  	68.423297 
3420.349631  	68.529527 
3421.784943  	68.698334 
3423.220256  	68.801367 
3424.655568  	68.842538 
3426.090881  	68.967086 
3427.526193  	69.047610 
3428.961505  	69.145778 
3430.396818  	69.334786 
3431.832130  	69.458631 
3433.267443  	69.587595 
3434.702755  	69.696030 
3436.138068  	69.743291 
3437.573380  	69.899640 
3439.008693  	70.059162 
3440.444005  	70.171028 
3441.879318  	70.335323 
3443.314630  	70.454397 
3444.749943  	70.581959 
3446.185255  	70.773257 
3447.620568  	70.921802 
3449.055880  	71.017930 
3450.491193  	71.090663 
3451.926505  	71.239342 
3453.361818  	71.441600 
3454.797130  	71.550707 
3456.232443  	71.678377 
3457.667755  	71.827938 
3459.103067  	71.931436 
3460.538380  	72.111079 
3461.973692  	72.288047 
3463.409005  	72.421448 
3464.844317  	72.590127 
3466.279630  	72.734833 
3467.714942  	72.907340 
3469.150255  	73.087628 
3470.585567  	73.236474 
3472.020880  	73.442632 
3473.456192  	73.580850 
3474.891505  	73.672993 
3476.326817  	73.869515 
3477.762130  	74.035448 
3479.197442  	74.171855 
3480.632755  	74.349768 
3482.068067  	74.534287 
3483.503380  	74.724898 
3484.938692  	74.844645 
3486.374005  	74.996630 
3487.809317  	75.233624 
3489.244629  	75.360592 
3490.679942  	75.483091 
3492.115254  	75.652836 
3493.550567  	75.798239 
3494.985879  	76.048828 
3496.421192  	76.263351 
3497.856504  	76.379189 
3499.291817  	76.563607 
3500.727129  	76.687648 
3502.162442  	76.819628 
3503.597754  	77.092118 
3505.033067  	77.307332 
3506.468379  	77.484460 
3507.903692  	77.656487 
3509.339004  	77.828118 
3510.774317  	78.066223 
3512.209629  	78.233473 
3513.644942  	78.372038 
3515.080254  	78.523524 
3516.515567  	78.629733 
3517.950879  	78.851168 
3519.386191  	79.086791 
3520.821504  	79.242226 
3522.256816  	79.508906 
3523.692129  	79.688290 
3525.127441  	79.767225 
3526.562754  	80.084415 
3527.998066  	80.428349 
3529.433379  	80.597670 
3530.868691  	80.733985 
3532.304004  	80.891960 
3533.739316  	81.071101 
3535.174629  	81.232727 
3536.609941  	81.411305 
3538.045254  	81.645886 
3539.480566  	81.841268 
3540.915879  	82.024687 
3542.351191  	82.242007 
3543.786504  	82.462030 
3545.221816  	82.642623 
3546.657129  	82.823261 
3548.092441  	83.146513 
3549.527753  	83.436179 
3550.963066  	83.634151 
3552.398378  	83.932629 
3553.833691  	84.121895 
3555.269003  	84.177098 
3556.704316  	84.370224 
3558.139628  	84.562057 
3559.574941  	84.727900 
3561.010253  	84.981496 
3562.445566  	85.284090 
3563.880878  	85.676247 
3565.316191  	85.997866 
3566.751503  	86.270963 
3568.186816  	86.659527 
3569.622128  	86.675279 
3571.057441  	86.603472 
3572.492753  	86.732096 
3573.928066  	86.903762 
3575.363378  	87.194486 
3576.798691  	87.507639 
3578.234003  	87.674743 
3579.669315  	87.908629 
3581.104628  	88.089434 
3582.539940  	88.247507 
3583.975253  	88.591401 
3585.410565  	88.892295 
3586.845878  	89.274285 
3588.281190  	89.769642 
3589.716503  	89.828958 
3591.151815  	89.872463 
3592.587128  	90.036115 
3594.022440  	90.256681 
3595.457753  	90.577884 
3596.893065  	90.720059 
3598.328378  	90.862594 
3599.763690  	91.212702 
3601.199003  	91.441005 
3602.634315  	91.511487 
3604.069628  	91.612970 
3605.504940  	91.821979 
3606.940253  	92.148274 
3608.375565  	92.407809 
3609.810877  	92.646321 
3611.246190  	92.877097 
3612.681502  	93.028583 
3614.116815  	93.273672 
3615.552127  	93.458751 
3616.987440  	93.658320 
3618.422752  	94.173936 
3619.858065  	94.562204 
3621.293377  	94.460199 
3622.728690  	94.328704 
3624.164002  	94.456762 
3625.599315  	94.944092 
3627.034627  	95.502384 
3628.469940  	96.344730 
3629.905252  	97.100221 
3631.340565  	96.429331 
3632.775877  	96.147128 
3634.211190  	96.241620 
3635.646502  	96.133977 
3637.081815  	96.266788 
3638.517127  	96.528627 
3639.952439  	96.486692 
3641.387752  	96.635576 
3642.823064  	96.971794 
3644.258377  	97.251652 
3645.693689  	97.821729 
3647.129002  	98.763173 
3648.564314  	99.728455 
3649.999627  	100.325771 
3651.434939  	99.962583 
3652.870252  	99.070198 
3654.305564  	98.707952 
3655.740877  	98.946157 
3657.176189  	99.357769 
3658.611502  	99.201983 
3660.046814  	99.089598 
3661.482127  	99.213916 
3662.917439  	99.333541 
3664.352752  	99.487653 
3665.788064  	99.670158 
3667.223377  	99.982627 
3668.658689  	100.617203 
3670.094001  	101.425694 
3671.529314  	101.575564 
3672.964626  	101.255514 
3674.399939  	101.658709 
3675.835251  	103.268618 
3677.270564  	102.455943 
3678.705876  	101.362024 
3680.141189  	101.143177 
3681.576501  	100.889074 
3683.011814  	100.679789 
3684.447126  	100.805063 
3685.882439  	101.061126 
3687.317751  	101.818834 
3688.753064  	103.040701 
3690.188376  	103.100538 
3691.623689  	102.603162 
3693.059001  	102.074975 
3694.494314  	101.669164 
3695.929626  	101.698138 
3697.364939  	101.780235 
3698.800251  	101.832787 
3700.235563  	102.122181 
3701.670876  	102.403164 
3703.106188  	102.393247 
3704.541501  	102.176116 
3705.976813  	101.986171 
3707.412126  	102.150784 
3708.847438  	102.680508 
3710.282751  	103.315972 
3711.718063  	103.716609 
3713.153376  	103.237951 
3714.588688  	102.200449 
3716.024001  	101.509833 
3717.459313  	101.475611 
3718.894626  	101.829592 
3720.329938  	102.086125 
3721.765251  	102.301868 
3723.200563  	102.346182 
3724.635876  	102.179557 
3726.071188  	102.219682 
3727.506501  	102.120737 
3728.941813  	101.845005 
3730.377125  	101.994622 
3731.812438  	102.586541 
3733.247750  	103.062553 
3734.683063  	103.274574 
3736.118375  	103.390377 
3737.553688  	102.555139 
3738.989000  	101.711562 
3740.424313  	101.441938 
3741.859625  	101.548580 
3743.294938  	101.921808 
3744.730250  	102.998516 
3746.165563  	102.751178 
3747.600875  	102.167522 
3749.036188  	102.651211 
3750.471500  	103.510934 
3751.906813  	103.395179 
3753.342125  	102.495757 
3754.777438  	101.595134 
3756.212750  	101.531308 
3757.648063  	101.877246 
3759.083375  	101.927576 
3760.518687  	101.974828 
3761.954000  	101.727082 
3763.389312  	101.379780 
3764.824625  	101.694104 
3766.259937  	102.138795 
3767.695250  	102.049221 
3769.130562  	102.257558 
3770.565875  	102.438168 
3772.001187  	102.035115 
3773.436500  	101.715654 
3774.871812  	101.603939 
3776.307125  	101.713384 
3777.742437  	102.013402 
3779.177750  	102.346356 
3780.613062  	102.344767 
3782.048375  	102.058776 
3783.483687  	102.040085 
3784.919000  	102.098342 
3786.354312  	101.920973 
3787.789625  	101.832598 
3789.224937  	101.709159 
3790.660249  	101.530169 
3792.095562  	101.617926 
3793.530874  	101.737397 
3794.966187  	101.835755 
3796.401499  	102.183160 
3797.836812  	102.368012 
3799.272124  	102.413519 
3800.707437  	103.061342 
3802.142749  	103.955580 
3803.578062  	103.082910 
3805.013374  	102.245907 
3806.448687  	102.425702 
3807.883999  	102.760403 
3809.319312  	101.981104 
3810.754624  	101.403883 
3812.189937  	101.313674 
3813.625249  	101.505174 
3815.060562  	102.150074 
3816.495874  	102.933699 
3817.931187  	102.621126 
3819.366499  	102.545228 
3820.801811  	103.252151 
3822.237124  	103.295476 
3823.672436  	102.270976 
3825.107749  	101.747185 
3826.543061  	101.633196 
3827.978374  	101.603624 
3829.413686  	101.647312 
3830.848999  	101.842951 
3832.284311  	101.914154 
3833.719624  	101.922563 
3835.154936  	102.225512 
3836.590249  	102.716600 
3838.025561  	103.182086 
3839.460874  	103.284347 
3840.896186  	102.832502 
3842.331499  	102.218363 
3843.766811  	101.753390 
3845.202124  	101.536771 
3846.637436  	101.307999 
3848.072749  	101.091653 
3849.508061  	101.338964 
3850.943373  	102.176897 
3852.378686  	103.697902 
3853.813998  	105.598756 
3855.249311  	104.118062 
3856.684623  	102.491099 
3858.119936  	101.540127 
3859.555248  	101.222331 
3860.990561  	101.555585 
3862.425873  	101.852163 
3863.861186  	101.884607 
3865.296498  	102.228544 
3866.731811  	102.222403 
3868.167123  	102.049677 
3869.602436  	102.486085 
3871.037748  	102.577665 
3872.473061  	101.999245 
3873.908373  	101.797238 
3875.343686  	101.681787 
3876.778998  	101.601646 
3878.214311  	101.644076 
3879.649623  	101.677560 
3881.084935  	101.785008 
3882.520248  	101.876882 
3883.955560  	101.834098 
3885.390873  	101.930907 
3886.826185  	102.022163 
3888.261498  	101.769300 
3889.696810  	101.675032 
3891.132123  	101.958450 
3892.567435  	102.066945 
3894.002748  	101.745249 
3895.438060  	101.460270 
3896.873373  	101.317057 
3898.308685  	101.551682 
3899.743998  	102.199011 
3901.179310  	102.464739 
3902.614623  	102.496799 
3904.049935  	102.711127 
3905.485248  	102.382403 
3906.920560  	101.796997 
3908.355873  	101.527488 
3909.791185  	101.418881 
3911.226497  	101.392196 
3912.661810  	101.395050 
3914.097122  	101.448785 
3915.532435  	101.627644 
3916.967747  	101.794774 
3918.403060  	101.877604 
3919.838372  	101.904785 
3921.273685  	101.763792 
3922.708997  	101.642539 
3924.144310  	101.697267 
3925.579622  	101.762841 
3927.014935  	101.760395 
3928.450247  	101.790999 
3929.885560  	101.832156 
3931.320872  	101.789589 
3932.756185  	101.751701 
3934.191497  	101.762302 
3935.626810  	101.640837 
3937.062122  	101.512480 
3938.497435  	101.584579 
3939.932747  	101.715403 
3941.368059  	101.770809 
3942.803372  	101.761085 
3944.238684  	101.734723 
3945.673997  	101.738812 
3947.109309  	101.670643 
3948.544622  	101.654608 
3949.979934  	101.773098 
3951.415247  	101.727432 
3952.850559  	101.645421 
3954.285872  	101.684338 
3955.721184  	101.662467 
3957.156497  	101.640882 
3958.591809  	101.636558 
3960.027122  	101.577654 
3961.462434  	101.592160 
3962.897747  	101.622595 
3964.333059  	101.618935 
3965.768372  	101.643432 
3967.203684  	101.648336 
3968.638997  	101.676851 
3970.074309  	101.692963 
3971.509621  	101.697937 
3972.944934  	101.801481 
3974.380246  	101.795369 
3975.815559  	101.669436 
3977.250871  	101.664977 
3978.686184  	101.667457 
3980.121496  	101.656678 
3981.556809  	101.703794 
3982.992121  	101.707904 
3984.427434  	101.702577 
3985.862746  	101.712038 
3987.298059  	101.721214 
3988.733371  	101.715312 
3990.168684  	101.650119 
3991.603996  	101.681513 
3993.039309  	101.770624 
3994.474621  	101.730515 
3995.909934  	101.701430 
3997.345246  	101.707915 
3998.780559  	101.700174 
4000.215871  	101.732381 