##TITLE=No Description
##DATA TYPE=INFRARED SPECTRUM
##XUNITS=1/CM
##YUNITS=%T
400.452181  	70.329528 
401.887493  	57.682761 
403.322806  	60.053707 
404.758118  	61.280871 
406.193431  	64.198626 
407.628743  	74.847991 
409.064056  	79.679666 
410.499368  	85.920534 
411.934681  	90.621289 
413.369993  	82.154303 
414.805306  	72.198126 
416.240618  	73.789371 
417.675931  	88.404600 
419.111243  	108.430527 
420.546556  	87.985022 
421.981868  	76.593367 
423.417180  	70.278141 
424.852493  	67.878428 
426.287805  	72.388059 
427.723118  	72.854496 
429.158430  	70.512810 
430.593743  	71.158081 
432.029055  	72.252091 
433.464368  	75.436413 
434.899680  	77.318944 
436.334993  	74.505436 
437.770305  	75.073498 
439.205618  	74.886537 
440.640930  	70.801302 
442.076243  	69.198236 
443.511555  	69.011552 
444.946868  	71.126122 
446.382180  	76.892204 
447.817493  	78.033495 
449.252805  	75.839788 
450.688118  	74.948892 
452.123430  	75.213722 
453.558742  	76.544769 
454.994055  	75.769987 
456.429367  	74.272391 
457.864680  	76.991475 
459.299992  	80.770243 
460.735305  	79.804902 
462.170617  	74.708723 
463.605930  	70.784064 
465.041242  	71.919315 
466.476555  	73.936837 
467.911867  	76.611141 
469.347180  	77.913715 
470.782492  	75.169565 
472.217805  	74.354226 
473.653117  	76.593242 
475.088430  	75.181520 
476.523742  	72.429005 
477.959055  	71.645258 
479.394367  	72.376252 
480.829680  	72.869650 
482.264992  	72.930752 
483.700304  	74.898064 
485.135617  	75.915725 
486.570929  	73.791920 
488.006242  	72.465366 
489.441554  	72.340868 
490.876867  	72.288004 
492.312179  	73.308266 
493.747492  	74.450639 
495.182804  	73.734318 
496.618117  	71.367282 
498.053429  	70.719973 
499.488742  	72.292971 
500.924054  	71.926727 
502.359367  	71.245323 
503.794679  	73.298089 
505.229992  	73.739183 
506.665304  	73.114139 
508.100617  	74.375371 
509.535929  	75.831331 
510.971242  	76.537336 
512.406554  	75.425272 
513.841866  	72.638986 
515.277179  	71.279920 
516.712491  	71.050370 
518.147804  	70.724160 
519.583116  	71.565933 
521.018429  	72.426760 
522.453741  	72.652082 
523.889054  	73.073741 
525.324366  	73.053354 
526.759679  	73.075558 
528.194991  	73.607106 
529.630304  	73.343488 
531.065616  	73.320826 
532.500929  	74.098168 
533.936241  	73.309421 
535.371554  	71.601805 
536.806866  	71.142644 
538.242179  	71.412546 
539.677491  	72.655856 
541.112804  	74.433816 
542.548116  	74.828824 
543.983428  	75.035915 
545.418741  	75.691976 
546.854053  	75.714734 
548.289366  	75.831650 
549.724678  	75.483965 
551.159991  	75.115826 
552.595303  	76.146891 
554.030616  	76.197743 
555.465928  	75.563217 
556.901241  	76.577707 
558.336553  	76.686452 
559.771866  	75.649313 
561.207178  	75.785415 
562.642491  	76.250459 
564.077803  	76.833041 
565.513116  	76.899667 
566.948428  	76.014542 
568.383741  	76.290726 
569.819053  	76.682763 
571.254366  	75.929494 
572.689678  	76.113488 
574.124990  	76.388322 
575.560303  	75.758845 
576.995615  	75.795476 
578.430928  	76.067014 
579.866240  	76.280710 
581.301553  	77.006248 
582.736865  	77.495374 
584.172178  	77.653084 
585.607490  	77.638419 
587.042803  	77.768236 
588.478115  	78.441094 
589.913428  	78.562323 
591.348740  	77.943560 
592.784053  	77.707051 
594.219365  	77.705632 
595.654678  	77.792659 
597.089990  	77.944997 
598.525303  	77.667256 
599.960615  	77.388763 
601.395928  	77.370528 
602.831240  	77.379738 
604.266552  	77.808059 
605.701865  	78.310562 
607.137177  	78.267744 
608.572490  	78.274634 
610.007802  	78.409164 
611.443115  	78.171493 
612.878427  	77.896963 
614.313740  	77.774823 
615.749052  	77.721374 
617.184365  	78.003389 
618.619677  	78.371179 
620.054990  	78.718082 
621.490302  	79.163763 
622.925615  	78.996154 
624.360927  	78.493534 
625.796240  	78.725719 
627.231552  	79.197898 
628.666865  	79.222999 
630.102177  	79.048638 
631.537490  	79.042886 
632.972802  	79.315558 
634.408114  	79.189275 
635.843427  	78.798884 
637.278739  	79.120353 
638.714052  	79.351612 
640.149364  	79.036425 
641.584677  	79.202103 
643.019989  	79.611899 
644.455302  	79.816873 
645.890614  	79.983392 
647.325927  	79.960569 
648.761239  	79.989938 
650.196552  	80.002108 
651.631864  	79.733830 
653.067177  	79.657045 
654.502489  	79.669971 
655.937802  	79.654262 
657.373114  	79.835524 
658.808427  	79.863042 
660.243739  	79.849456 
661.679051  	80.017606 
663.114364  	80.218365 
664.549676  	80.503101 
665.984989  	80.548668 
667.420301  	80.007677 
668.855614  	79.660060 
670.290926  	80.252390 
671.726239  	80.401273 
673.161551  	80.272660 
674.596864  	80.116526 
676.032176  	80.316930 
677.467489  	80.354675 
678.902801  	80.061874 
680.338114  	80.201303 
681.773426  	80.559722 
683.208739  	80.691081 
684.644051  	80.727182 
686.079364  	80.692259 
687.514676  	80.828143 
688.949989  	80.970025 
690.385301  	80.843556 
691.820613  	80.860616 
693.255926  	80.919026 
694.691238  	80.758096 
696.126551  	80.657848 
697.561863  	80.742927 
698.997176  	81.033470 
700.432488  	81.356453 
701.867801  	81.419390 
703.303113  	81.383813 
704.738426  	81.478583 
706.173738  	81.751205 
707.609051  	81.950835 
709.044363  	81.855950 
710.479676  	81.915092 
711.914988  	82.236855 
713.350301  	82.442326 
714.785613  	82.618640 
716.220926  	82.723412 
717.656238  	82.628211 
719.091551  	82.548261 
720.526863  	82.586158 
721.962175  	82.838576 
723.397488  	83.171739 
724.832800  	83.288956 
726.268113  	83.274379 
727.703425  	83.332244 
729.138738  	83.553845 
730.574050  	83.766891 
732.009363  	83.711819 
733.444675  	83.678788 
734.879988  	83.772112 
736.315300  	83.813071 
737.750613  	84.022113 
739.185925  	84.258817 
740.621238  	84.289529 
742.056550  	84.321194 
743.491863  	84.343854 
744.927175  	84.451072 
746.362488  	84.636795 
747.797800  	84.592249 
749.233113  	84.626149 
750.668425  	84.890977 
752.103737  	84.969176 
753.539050  	84.951912 
754.974362  	85.058282 
756.409675  	85.112070 
757.844987  	84.958387 
759.280300  	84.696004 
760.715612  	84.515617 
762.150925  	84.369708 
763.586237  	84.235703 
765.021550  	84.147075 
766.456862  	84.029326 
767.892175  	84.068837 
769.327487  	84.247586 
770.762800  	84.283368 
772.198112  	84.274631 
773.633425  	84.169733 
775.068737  	83.953037 
776.504050  	83.911770 
777.939362  	83.896241 
779.374675  	83.885349 
780.809987  	84.047102 
782.245299  	84.131190 
783.680612  	84.175242 
785.115924  	84.274117 
786.551237  	84.287203 
787.986549  	84.361751 
789.421862  	84.480963 
790.857174  	84.571165 
792.292487  	84.692550 
793.727799  	84.707282 
795.163112  	84.750040 
796.598424  	84.888068 
798.033737  	84.898624 
799.469049  	84.940182 
800.904362  	85.050360 
802.339674  	85.075308 
803.774987  	85.075939 
805.210299  	85.019958 
806.645612  	84.987334 
808.080924  	85.036957 
809.516237  	85.072621 
810.951549  	85.199149 
812.386861  	85.311929 
813.822174  	85.319998 
815.257486  	85.414495 
816.692799  	85.472284 
818.128111  	85.472502 
819.563424  	85.584109 
820.998736  	85.647039 
822.434049  	85.598374 
823.869361  	85.565046 
825.304674  	85.615089 
826.739986  	85.667367 
828.175299  	85.601305 
829.610611  	85.606273 
831.045924  	85.695887 
832.481236  	85.711897 
833.916549  	85.811386 
835.351861  	85.838917 
836.787174  	85.669052 
838.222486  	85.600213 
839.657799  	85.503809 
841.093111  	85.298260 
842.528423  	85.203381 
843.963736  	85.101418 
845.399048  	84.935555 
846.834361  	84.757700 
848.269673  	84.604974 
849.704986  	84.577026 
851.140298  	84.486474 
852.575611  	84.314621 
854.010923  	84.269335 
855.446236  	84.246440 
856.881548  	84.247969 
858.316861  	84.280408 
859.752173  	84.212622 
861.187486  	84.190995 
862.622798  	84.253065 
864.058111  	84.313971 
865.493423  	84.366915 
866.928736  	84.334222 
868.364048  	84.347181 
869.799361  	84.436519 
871.234673  	84.456106 
872.669985  	84.540774 
874.105298  	84.645339 
875.540610  	84.635637 
876.975923  	84.621753 
878.411235  	84.601797 
879.846548  	84.629921 
881.281860  	84.680637 
882.717173  	84.656457 
884.152485  	84.790791 
885.587798  	85.011335 
887.023110  	85.061323 
888.458423  	85.114976 
889.893735  	85.224442 
891.329048  	85.304646 
892.764360  	85.380399 
894.199673  	85.457536 
895.634985  	85.550028 
897.070298  	85.534911 
898.505610  	85.474179 
899.940923  	85.547126 
901.376235  	85.556239 
902.811547  	85.511725 
904.246860  	85.548902 
905.682172  	85.534038 
907.117485  	85.565070 
908.552797  	85.652206 
909.988110  	85.705089 
911.423422  	85.881698 
912.858735  	86.062454 
914.294047  	86.181501 
915.729360  	86.358874 
917.164672  	86.442179 
918.599985  	86.522340 
920.035297  	86.659594 
921.470610  	86.613776 
922.905922  	86.483815 
924.341235  	86.361517 
925.776547  	86.238241 
927.211860  	86.203216 
928.647172  	86.112238 
930.082485  	85.968889 
931.517797  	85.911962 
932.953109  	85.853611 
934.388422  	85.833870 
935.823734  	85.903836 
937.259047  	86.023966 
938.694359  	86.183242 
940.129672  	86.244153 
941.564984  	86.249372 
943.000297  	86.311827 
944.435609  	86.353561 
945.870922  	86.415110 
947.306234  	86.461083 
948.741547  	86.422062 
950.176859  	86.368801 
951.612172  	86.247256 
953.047484  	86.145239 
954.482797  	86.110730 
955.918109  	85.953331 
957.353422  	85.805480 
958.788734  	85.751560 
960.224047  	85.630771 
961.659359  	85.486589 
963.094671  	85.311994 
964.529984  	85.149362 
965.965296  	85.076510 
967.400609  	84.934303 
968.835921  	84.813625 
970.271234  	84.791304 
971.706546  	84.637536 
973.141859  	84.409678 
974.577171  	84.224879 
976.012484  	84.062912 
977.447796  	83.971192 
978.883109  	83.869332 
980.318421  	83.721569 
981.753734  	83.571249 
983.189046  	83.390020 
984.624359  	83.231109 
986.059671  	83.056351 
987.494984  	82.850759 
988.930296  	82.752253 
990.365609  	82.695618 
991.800921  	82.600932 
993.236233  	82.504826 
994.671546  	82.399621 
996.106858  	82.339583 
997.542171  	82.293260 
998.977483  	82.221520 
1000.412796  	82.188235 
1001.848108  	82.108809 
1003.283421  	81.945753 
1004.718733  	81.699849 
1006.154046  	81.319437 
1007.589358  	80.971913 
1009.024671  	80.740338 
1010.459983  	80.539337 
1011.895296  	80.403002 
1013.330608  	80.286566 
1014.765921  	80.143439 
1016.201233  	80.032335 
1017.636546  	79.928408 
1019.071858  	79.774171 
1020.507171  	79.525102 
1021.942483  	79.311986 
1023.377795  	79.232922 
1024.813108  	79.051077 
1026.248420  	78.758421 
1027.683733  	78.572312 
1029.119045  	78.432973 
1030.554358  	78.044936 
1031.989670  	77.197712 
1033.424983  	76.660166 
1034.860295  	77.225199 
1036.295608  	77.830252 
1037.730920  	77.735727 
1039.166233  	77.593643 
1040.601545  	77.476811 
1042.036858  	77.222511 
1043.472170  	77.044511 
1044.907483  	76.825267 
1046.342795  	76.635849 
1047.778108  	76.534252 
1049.213420  	76.305738 
1050.648733  	76.122612 
1052.084045  	75.972631 
1053.519357  	75.734088 
1054.954670  	75.655478 
1056.389982  	75.661798 
1057.825295  	75.638302 
1059.260607  	75.660439 
1060.695920  	75.646970 
1062.131232  	75.696838 
1063.566545  	75.821906 
1065.001857  	75.908858 
1066.437170  	76.030255 
1067.872482  	76.116706 
1069.307795  	76.219925 
1070.743107  	76.415411 
1072.178420  	76.529821 
1073.613732  	76.635628 
1075.049045  	76.729485 
1076.484357  	76.748518 
1077.919670  	76.902592 
1079.354982  	77.082175 
1080.790295  	77.208049 
1082.225607  	77.457737 
1083.660919  	77.710084 
1085.096232  	77.926207 
1086.531544  	78.139322 
1087.966857  	78.310113 
1089.402169  	78.569319 
1090.837482  	78.829977 
1092.272794  	79.017779 
1093.708107  	79.297107 
1095.143419  	79.580726 
1096.578732  	79.747548 
1098.014044  	79.830614 
1099.449357  	79.909538 
1100.884669  	80.047356 
1102.319982  	80.156780 
1103.755294  	80.297084 
1105.190607  	80.520651 
1106.625919  	80.641913 
1108.061232  	80.725380 
1109.496544  	80.863706 
1110.931857  	80.998380 
1112.367169  	81.203496 
1113.802481  	81.401367 
1115.237794  	81.532559 
1116.673106  	81.716724 
1118.108419  	81.943062 
1119.543731  	82.226465 
1120.979044  	82.515613 
1122.414356  	82.723324 
1123.849669  	82.948840 
1125.284981  	83.121703 
1126.720294  	83.202173 
1128.155606  	83.335745 
1129.590919  	83.495355 
1131.026231  	83.670767 
1132.461544  	83.855533 
1133.896856  	84.003322 
1135.332169  	84.219932 
1136.767481  	84.485331 
1138.202794  	84.699258 
1139.638106  	84.833366 
1141.073419  	84.915564 
1142.508731  	85.106879 
1143.944043  	85.288701 
1145.379356  	85.293178 
1146.814668  	85.339621 
1148.249981  	85.438030 
1149.685293  	85.499727 
1151.120606  	85.595475 
1152.555918  	85.611352 
1153.991231  	85.597841 
1155.426543  	85.667309 
1156.861856  	85.714681 
1158.297168  	85.819516 
1159.732481  	86.002063 
1161.167793  	86.164196 
1162.603106  	86.371905 
1164.038418  	86.570211 
1165.473731  	86.749381 
1166.909043  	86.981844 
1168.344356  	87.207319 
1169.779668  	87.495490 
1171.214981  	87.817194 
1172.650293  	88.002336 
1174.085605  	88.094257 
1175.520918  	88.127836 
1176.956230  	88.126842 
1178.391543  	88.122990 
1179.826855  	88.049140 
1181.262168  	87.929181 
1182.697480  	87.767941 
1184.132793  	87.539750 
1185.568105  	87.298948 
1187.003418  	87.037431 
1188.438730  	86.797298 
1189.874043  	86.629620 
1191.309355  	86.461370 
1192.744668  	86.297741 
1194.179980  	86.156440 
1195.615293  	86.009663 
1197.050605  	85.870433 
1198.485918  	85.710869 
1199.921230  	85.547779 
1201.356543  	85.364138 
1202.791855  	85.092942 
1204.227167  	84.853117 
1205.662480  	84.692262 
1207.097792  	84.546045 
1208.533105  	84.464953 
1209.968417  	84.385526 
1211.403730  	84.262605 
1212.839042  	84.190546 
1214.274355  	84.150722 
1215.709667  	84.148109 
1217.144980  	84.148977 
1218.580292  	84.076754 
1220.015605  	84.034226 
1221.450917  	83.968298 
1222.886230  	83.811241 
1224.321542  	83.724199 
1225.756855  	83.691713 
1227.192167  	83.684970 
1228.627480  	83.738703 
1230.062792  	83.743626 
1231.498105  	83.763365 
1232.933417  	83.829689 
1234.368729  	83.832148 
1235.804042  	83.871619 
1237.239354  	83.944619 
1238.674667  	83.974759 
1240.109979  	84.055595 
1241.545292  	84.151642 
1242.980604  	84.232382 
1244.415917  	84.356706 
1245.851229  	84.512611 
1247.286542  	84.699833 
1248.721854  	84.864409 
1250.157167  	85.029095 
1251.592479  	85.264616 
1253.027792  	85.470720 
1254.463104  	85.669152 
1255.898417  	85.889257 
1257.333729  	86.026711 
1258.769042  	86.157603 
1260.204354  	86.330569 
1261.639667  	86.520573 
1263.074979  	86.730967 
1264.510291  	86.854835 
1265.945604  	86.949143 
1267.380916  	87.108934 
1268.816229  	87.223988 
1270.251541  	87.320781 
1271.686854  	87.466742 
1273.122166  	87.632190 
1274.557479  	87.810080 
1275.992791  	87.951077 
1277.428104  	88.059709 
1278.863416  	88.140633 
1280.298729  	88.192810 
1281.734041  	88.289060 
1283.169354  	88.331942 
1284.604666  	88.244926 
1286.039979  	88.096422 
1287.475291  	87.886699 
1288.910604  	87.725489 
1290.345916  	87.645923 
1291.781229  	87.533789 
1293.216541  	87.467428 
1294.651853  	87.407226 
1296.087166  	87.297324 
1297.522478  	87.308435 
1298.957791  	87.377343 
1300.393103  	87.423552 
1301.828416  	87.486926 
1303.263728  	87.479665 
1304.699041  	87.464586 
1306.134353  	87.431146 
1307.569666  	87.302843 
1309.004978  	87.253727 
1310.440291  	87.173971 
1311.875603  	86.912024 
1313.310916  	86.755627 
1314.746228  	86.791775 
1316.181541  	86.808425 
1317.616853  	86.722874 
1319.052166  	86.649305 
1320.487478  	86.826058 
1321.922791  	87.062362 
1323.358103  	87.137756 
1324.793415  	87.213064 
1326.228728  	87.260341 
1327.664040  	87.240377 
1329.099353  	87.233687 
1330.534665  	87.172631 
1331.969978  	87.155021 
1333.405290  	87.184948 
1334.840603  	87.081051 
1336.275915  	86.892654 
1337.711228  	86.533050 
1339.146540  	86.123671 
1340.581853  	86.493642 
1342.017165  	87.297034 
1343.452478  	87.695698 
1344.887790  	87.795197 
1346.323103  	87.890290 
1347.758415  	87.971992 
1349.193728  	87.959399 
1350.629040  	87.988602 
1352.064353  	88.007591 
1353.499665  	87.822184 
1354.934977  	87.628121 
1356.370290  	87.549228 
1357.805602  	87.411431 
1359.240915  	87.178684 
1360.676227  	86.668489 
1362.111540  	85.865202 
1363.546852  	85.686084 
1364.982165  	86.119444 
1366.417477  	86.131505 
1367.852790  	85.721563 
1369.288102  	85.471973 
1370.723415  	85.529931 
1372.158727  	85.282451 
1373.594040  	84.550555 
1375.029352  	84.385933 
1376.464665  	84.819646 
1377.899977  	84.841829 
1379.335290  	84.738753 
1380.770602  	84.764144 
1382.205915  	84.716466 
1383.641227  	84.698966 
1385.076539  	84.415728 
1386.511852  	83.747523 
1387.947164  	83.718953 
1389.382477  	84.273766 
1390.817789  	84.492466 
1392.253102  	84.354089 
1393.688414  	83.819730 
1395.123727  	83.345241 
1396.559039  	83.561726 
1397.994352  	83.545200 
1399.429664  	83.520999 
1400.864977  	84.182531 
1402.300289  	84.467193 
1403.735602  	84.101694 
1405.170914  	83.938139 
1406.606227  	84.390865 
1408.041539  	84.760667 
1409.476852  	84.804365 
1410.912164  	84.707503 
1412.347477  	84.800677 
1413.782789  	84.959789 
1415.218101  	84.787481 
1416.653414  	84.270622 
1418.088726  	83.544784 
1419.524039  	83.712466 
1420.959351  	85.015904 
1422.394664  	85.332958 
1423.829976  	85.077916 
1425.265289  	85.654928 
1426.700601  	86.296552 
1428.135914  	86.183983 
1429.571226  	85.884879 
1431.006539  	85.964843 
1432.441851  	86.127096 
1433.877164  	85.970349 
1435.312476  	85.253473 
1436.747789  	84.527502 
1438.183101  	85.149693 
1439.618414  	85.588731 
1441.053726  	85.592929 
1442.489039  	85.540103 
1443.924351  	85.560470 
1445.359663  	85.476643 
1446.794976  	85.095621 
1448.230288  	84.905350 
1449.665601  	85.237878 
1451.100913  	85.279936 
1452.536226  	85.035645 
1453.971538  	84.727415 
1455.406851  	83.859143 
1456.842163  	82.254570 
1458.277476  	82.852765 
1459.712788  	84.375781 
1461.148101  	85.496820 
1462.583413  	85.687942 
1464.018726  	85.034660 
1465.454038  	84.911414 
1466.889351  	85.503171 
1468.324663  	85.844471 
1469.759976  	85.828510 
1471.195288  	85.048801 
1472.630601  	84.033616 
1474.065913  	84.829005 
1475.501225  	85.380396 
1476.936538  	85.738401 
1478.371850  	86.395308 
1479.807163  	86.452279 
1481.242475  	86.078734 
1482.677788  	86.111536 
1484.113100  	86.084539 
1485.548413  	85.507746 
1486.983725  	84.681632 
1488.419038  	83.700213 
1489.854350  	82.848564 
1491.289663  	83.517731 
1492.724975  	84.297603 
1494.160288  	84.046210 
1495.595600  	83.073673 
1497.030913  	82.399884 
1498.466225  	82.463522 
1499.901538  	82.563844 
1501.336850  	82.675994 
1502.772163  	82.506310 
1504.207475  	81.761506 
1505.642787  	79.965136 
1507.078100  	77.152158 
1508.513412  	78.684493 
1509.948725  	79.949980 
1511.384037  	80.387777 
1512.819350  	80.698228 
1514.254662  	80.412116 
1515.689975  	79.348684 
1517.125287  	78.871305 
1518.560600  	79.447046 
1519.995912  	78.781731 
1521.431225  	77.370080 
1522.866537  	78.243110 
1524.301850  	78.575223 
1525.737162  	78.061510 
1527.172475  	77.957917 
1528.607787  	78.205860 
1530.043100  	78.439100 
1531.478412  	78.096387 
1532.913725  	76.898573 
1534.349037  	77.027047 
1535.784349  	77.884026 
1537.219662  	77.447793 
1538.654974  	76.068314 
1540.090287  	74.600792 
1541.525599  	75.622730 
1542.960912  	76.853162 
1544.396224  	77.100198 
1545.831537  	78.460883 
1547.266849  	79.720736 
1548.702162  	79.651975 
1550.137474  	79.776259 
1551.572787  	80.617565 
1553.008099  	80.727942 
1554.443412  	80.694560 
1555.878724  	80.861356 
1557.314037  	80.035178 
1558.749349  	77.066129 
1560.184662  	80.478246 
1561.619974  	82.963940 
1563.055287  	83.292441 
1564.490599  	83.244692 
1565.925911  	83.659946 
1567.361224  	83.756162 
1568.796536  	83.045626 
1570.231849  	83.002605 
1571.667161  	83.999140 
1573.102474  	84.141274 
1574.537786  	83.460949 
1575.973099  	82.582320 
1577.408411  	83.096439 
1578.843724  	84.004547 
1580.279036  	84.345278 
1581.714349  	84.345291 
1583.149661  	84.416290 
1584.584974  	84.542072 
1586.020286  	84.551197 
1587.455599  	84.570887 
1588.890911  	84.506426 
1590.326224  	84.407917 
1591.761536  	84.428494 
1593.196849  	84.255171 
1594.632161  	84.019575 
1596.067473  	83.983042 
1597.502786  	83.864463 
1598.938098  	83.657383 
1600.373411  	83.295067 
1601.808723  	82.744707 
1603.244036  	82.315853 
1604.679348  	81.869314 
1606.114661  	81.311351 
1607.549973  	80.697349 
1608.985286  	80.070336 
1610.420598  	79.708111 
1611.855911  	79.409800 
1613.291223  	78.919650 
1614.726536  	78.156890 
1616.161848  	76.939966 
1617.597161  	76.678367 
1619.032473  	77.203237 
1620.467786  	76.930834 
1621.903098  	76.091654 
1623.338411  	75.370665 
1624.773723  	75.585766 
1626.209035  	75.733825 
1627.644348  	75.301322 
1629.079660  	75.278493 
1630.514973  	75.707255 
1631.950285  	75.661296 
1633.385598  	75.190829 
1634.820910  	74.165767 
1636.256223  	73.483853 
1637.691535  	74.875701 
1639.126848  	75.550153 
1640.562160  	75.722672 
1641.997473  	75.965947 
1643.432785  	75.938506 
1644.868098  	75.369679 
1646.303410  	74.162956 
1647.738723  	74.071215 
1649.174035  	75.630099 
1650.609348  	75.910416 
1652.044660  	74.589198 
1653.479973  	73.214210 
1654.915285  	76.024119 
1656.350597  	77.341372 
1657.785910  	78.204258 
1659.221222  	78.688099 
1660.656535  	78.884372 
1662.091847  	78.861381 
1663.527160  	79.323784 
1664.962472  	80.473269 
1666.397785  	80.819822 
1667.833097  	80.327189 
1669.268410  	79.954838 
1670.703722  	80.409648 
1672.139035  	81.468810 
1673.574347  	81.963680 
1675.009660  	81.630999 
1676.444972  	82.446096 
1677.880285  	83.324051 
1679.315597  	83.173655 
1680.750910  	83.130983 
1682.186222  	83.075214 
1683.621535  	81.594529 
1685.056847  	82.418999 
1686.492159  	84.480300 
1687.927472  	84.876485 
1689.362784  	85.171407 
1690.798097  	85.904889 
1692.233409  	86.562691 
1693.668722  	86.582061 
1695.104034  	85.781201 
1696.539347  	85.450301 
1697.974659  	86.147342 
1699.409972  	85.879926 
1700.845284  	85.761608 
1702.280597  	87.441673 
1703.715909  	87.988159 
1705.151222  	87.638937 
1706.586534  	87.902286 
1708.021847  	88.913431 
1709.457159  	89.314178 
1710.892472  	89.442019 
1712.327784  	89.580439 
1713.763097  	89.107071 
1715.198409  	88.535386 
1716.633721  	88.106813 
1718.069034  	87.855655 
1719.504346  	89.768377 
1720.939659  	91.121855 
1722.374971  	91.413514 
1723.810284  	91.655885 
1725.245596  	92.149419 
1726.680909  	92.561567 
1728.116221  	92.586484 
1729.551534  	92.122654 
1730.986846  	92.071117 
1732.422159  	92.065655 
1733.857471  	90.813448 
1735.292784  	91.591652 
1736.728096  	93.276787 
1738.163409  	93.407485 
1739.598721  	92.948540 
1741.034034  	93.367115 
1742.469346  	93.628224 
1743.904659  	93.519549 
1745.339971  	93.871371 
1746.775283  	93.943880 
1748.210596  	93.457224 
1749.645908  	93.562504 
1751.081221  	94.004854 
1752.516533  	94.917597 
1753.951846  	96.032514 
1755.387158  	96.222104 
1756.822471  	95.793165 
1758.257783  	96.310543 
1759.693096  	96.707620 
1761.128408  	96.289701 
1762.563721  	96.180018 
1763.999033  	96.856990 
1765.434346  	97.271274 
1766.869658  	96.918462 
1768.304971  	96.384957 
1769.740283  	96.490910 
1771.175596  	95.899493 
1772.610908  	95.157602 
1774.046221  	96.193389 
1775.481533  	96.833902 
1776.916845  	97.184251 
1778.352158  	97.390376 
1779.787470  	96.916788 
1781.222783  	96.889214 
1782.658095  	97.454362 
1784.093408  	97.406257 
1785.528720  	97.315393 
1786.964033  	97.567826 
1788.399345  	97.643488 
1789.834658  	97.333098 
1791.269970  	96.466966 
1792.705283  	96.075220 
1794.140595  	96.746844 
1795.575908  	97.055651 
1797.011220  	97.176725 
1798.446533  	97.273613 
1799.881845  	97.031218 
1801.317158  	96.830012 
1802.752470  	97.122781 
1804.187783  	97.613511 
1805.623095  	97.867003 
1807.058407  	97.756860 
1808.493720  	97.668474 
1809.929032  	97.499316 
1811.364345  	97.218208 
1812.799657  	97.479202 
1814.234970  	97.941066 
1815.670282  	97.994226 
1817.105595  	97.861526 
1818.540907  	97.884659 
1819.976220  	97.963747 
1821.411532  	97.927345 
1822.846845  	97.734380 
1824.282157  	97.272528 
1825.717470  	97.068532 
1827.152782  	97.458285 
1828.588095  	97.245141 
1830.023407  	96.566611 
1831.458720  	97.208881 
1832.894032  	97.943185 
1834.329345  	97.974478 
1835.764657  	97.885142 
1837.199969  	97.734256 
1838.635282  	97.740652 
1840.070594  	98.034006 
1841.505907  	97.898477 
1842.941219  	97.218835 
1844.376532  	96.646015 
1845.811844  	96.976278 
1847.247157  	97.454358 
1848.682469  	97.605757 
1850.117782  	97.881712 
1851.553094  	98.168318 
1852.988407  	98.071583 
1854.423719  	98.114870 
1855.859032  	98.187984 
1857.294344  	97.999762 
1858.729657  	98.042789 
1860.164969  	98.040897 
1861.600282  	97.933506 
1863.035594  	98.071974 
1864.470907  	97.985303 
1865.906219  	97.653455 
1867.341531  	97.105563 
1868.776844  	96.434545 
1870.212156  	96.955031 
1871.647469  	97.798826 
1873.082781  	98.010040 
1874.518094  	98.142492 
1875.953406  	98.198208 
1877.388719  	98.167226 
1878.824031  	98.197438 
1880.259344  	98.125257 
1881.694656  	98.190092 
1883.129969  	98.192437 
1884.565281  	97.982153 
1886.000594  	98.096168 
1887.435906  	98.085627 
1888.871219  	97.610842 
1890.306531  	97.531468 
1891.741844  	97.934410 
1893.177156  	98.097373 
1894.612469  	97.919930 
1896.047781  	97.852579 
1897.483093  	98.117932 
1898.918406  	98.218005 
1900.353718  	98.192718 
1901.789031  	98.233265 
1903.224343  	98.137271 
1904.659656  	98.147308 
1906.094968  	98.176229 
1907.530281  	97.974768 
1908.965593  	97.878684 
1910.400906  	97.922148 
1911.836218  	98.049788 
1913.271531  	98.196745 
1914.706843  	98.171859 
1916.142156  	98.102878 
1917.577468  	97.793750 
1919.012781  	97.696932 
1920.448093  	98.113979 
1921.883406  	97.833865 
1923.318718  	97.371113 
1924.754031  	97.937939 
1926.189343  	98.252383 
1927.624655  	98.254142 
1929.059968  	98.415352 
1930.495280  	98.272278 
1931.930593  	98.239476 
1933.365905  	98.299330 
1934.801218  	98.172606 
1936.236530  	98.238426 
1937.671843  	98.187994 
1939.107155  	98.194249 
1940.542468  	98.143469 
1941.977780  	97.390369 
1943.413093  	97.238903 
1944.848405  	97.790083 
1946.283718  	97.794393 
1947.719030  	97.962641 
1949.154343  	98.204295 
1950.589655  	98.232219 
1952.024968  	98.383685 
1953.460280  	98.219044 
1954.895592  	98.179032 
1956.330905  	98.388890 
1957.766217  	98.267712 
1959.201530  	98.359378 
1960.636842  	98.316838 
1962.072155  	98.028212 
1963.507467  	98.186920 
1964.942780  	98.011306 
1966.378092  	97.744610 
1967.813405  	98.102851 
1969.248717  	98.270656 
1970.684030  	98.261540 
1972.119342  	98.027200 
1973.554655  	97.826666 
1974.989967  	98.184270 
1976.425280  	98.198827 
1977.860592  	98.042453 
1979.295905  	98.145929 
1980.731217  	98.044392 
1982.166530  	98.107815 
1983.601842  	98.055954 
1985.037154  	97.897071 
1986.472467  	98.106704 
1987.907779  	98.077126 
1989.343092  	98.043081 
1990.778404  	98.021576 
1992.213717  	97.520343 
1993.649029  	97.687420 
1995.084342  	98.220128 
1996.519654  	98.218278 
1997.954967  	98.331792 
1999.390279  	98.364612 
2000.825592  	98.286536 
2002.260904  	98.394228 
2003.696217  	98.276304 
2005.131529  	98.288004 
2006.566842  	98.121661 
2008.002154  	97.571160 
2009.437467  	97.721514 
2010.872779  	97.983093 
2012.308092  	97.915984 
2013.743404  	97.980349 
2015.178716  	97.788085 
2016.614029  	97.776811 
2018.049341  	97.914844 
2019.484654  	97.791445 
2020.919966  	98.193281 
2022.355279  	98.462112 
2023.790591  	98.271279 
2025.225904  	98.294066 
2026.661216  	98.025567 
2028.096529  	97.817380 
2029.531841  	97.876812 
2030.967154  	97.880243 
2032.402466  	98.405277 
2033.837779  	98.566220 
2035.273091  	98.036208 
2036.708404  	97.895078 
2038.143716  	97.754994 
2039.579029  	97.645193 
2041.014341  	97.763607 
2042.449654  	97.642988 
2043.884966  	97.708435 
2045.320278  	97.857779 
2046.755591  	97.873419 
2048.190903  	97.916913 
2049.626216  	97.571090 
2051.061528  	97.475745 
2052.496841  	97.844029 
2053.932153  	97.876928 
2055.367466  	97.862778 
2056.802778  	97.845294 
2058.238091  	97.629048 
2059.673403  	97.684397 
2061.108716  	97.789731 
2062.544028  	97.812629 
2063.979341  	97.810196 
2065.414653  	97.589609 
2066.849966  	97.678624 
2068.285278  	97.902877 
2069.720591  	97.776839 
2071.155903  	97.720886 
2072.591216  	97.614525 
2074.026528  	97.523243 
2075.461840  	97.727438 
2076.897153  	97.720009 
2078.332465  	97.729663 
2079.767778  	97.932809 
2081.203090  	97.885640 
2082.638403  	97.892844 
2084.073715  	97.947590 
2085.509028  	97.828357 
2086.944340  	97.778739 
2088.379653  	97.679515 
2089.814965  	97.654676 
2091.250278  	97.833478 
2092.685590  	97.827347 
2094.120903  	97.780987 
2095.556215  	97.795228 
2096.991528  	97.679810 
2098.426840  	97.633162 
2099.862153  	97.735970 
2101.297465  	97.895381 
2102.732778  	97.874306 
2104.168090  	97.648044 
2105.603402  	97.632984 
2107.038715  	97.689195 
2108.474027  	97.647075 
2109.909340  	97.687869 
2111.344652  	97.639491 
2112.779965  	97.595624 
2114.215277  	97.595473 
2115.650590  	97.528773 
2117.085902  	97.754835 
2118.521215  	97.986883 
2119.956527  	97.922950 
2121.391840  	97.988252 
2122.827152  	97.984125 
2124.262465  	97.904673 
2125.697777  	98.018664 
2127.133090  	97.929156 
2128.568402  	97.802637 
2130.003715  	97.877716 
2131.439027  	97.903507 
2132.874340  	97.982465 
2134.309652  	97.917645 
2135.744964  	97.802376 
2137.180277  	97.898709 
2138.615589  	97.678722 
2140.050902  	97.525876 
2141.486214  	97.763763 
2142.921527  	97.800550 
2144.356839  	97.838035 
2145.792152  	97.779455 
2147.227464  	97.636171 
2148.662777  	97.876756 
2150.098089  	97.882450 
2151.533402  	97.897945 
2152.968714  	98.183824 
2154.404027  	97.894248 
2155.839339  	97.803116 
2157.274652  	98.023527 
2158.709964  	97.549994 
2160.145277  	97.247791 
2161.580589  	97.310995 
2163.015902  	97.406365 
2164.451214  	97.534888 
2165.886526  	97.329070 
2167.321839  	97.437449 
2168.757151  	97.587311 
2170.192464  	97.196877 
2171.627776  	97.227672 
2173.063089  	97.406501 
2174.498401  	97.150177 
2175.933714  	97.122765 
2177.369026  	97.287553 
2178.804339  	97.627427 
2180.239651  	97.951213 
2181.674964  	97.707600 
2183.110276  	97.510421 
2184.545589  	97.461844 
2185.980901  	97.312919 
2187.416214  	97.407399 
2188.851526  	97.352402 
2190.286839  	97.247978 
2191.722151  	97.555875 
2193.157464  	97.702060 
2194.592776  	97.605710 
2196.028088  	97.543312 
2197.463401  	97.403349 
2198.898713  	97.346665 
2200.334026  	97.428063 
2201.769338  	97.441894 
2203.204651  	97.355980 
2204.639963  	97.441807 
2206.075276  	97.732254 
2207.510588  	97.680757 
2208.945901  	97.453474 
2210.381213  	97.468131 
2211.816526  	97.412121 
2213.251838  	97.426596 
2214.687151  	97.545653 
2216.122463  	97.429470 
2217.557776  	97.442055 
2218.993088  	97.500765 
2220.428401  	97.361090 
2221.863713  	97.378556 
2223.299026  	97.354190 
2224.734338  	97.293886 
2226.169650  	97.487691 
2227.604963  	97.515610 
2229.040275  	97.335764 
2230.475588  	97.223801 
2231.910900  	97.178367 
2233.346213  	97.259305 
2234.781525  	97.337408 
2236.216838  	97.380150 
2237.652150  	97.406316 
2239.087463  	97.306406 
2240.522775  	97.350138 
2241.958088  	97.481225 
2243.393400  	97.429560 
2244.828713  	97.400747 
2246.264025  	97.320841 
2247.699338  	97.208160 
2249.134650  	97.308053 
2250.569963  	97.354359 
2252.005275  	97.292748 
2253.440588  	97.276540 
2254.875900  	97.221747 
2256.311212  	97.200835 
2257.746525  	97.171821 
2259.181837  	97.114317 
2260.617150  	97.108734 
2262.052462  	97.034877 
2263.487775  	97.030333 
2264.923087  	97.102414 
2266.358400  	96.993775 
2267.793712  	96.925669 
2269.229025  	96.995002 
2270.664337  	96.989261 
2272.099650  	96.923907 
2273.534962  	96.861516 
2274.970275  	96.928079 
2276.405587  	97.039975 
2277.840900  	96.971731 
2279.276212  	96.913021 
2280.711525  	96.924593 
2282.146837  	96.897476 
2283.582150  	96.924892 
2285.017462  	96.933132 
2286.452774  	96.870744 
2287.888087  	96.797835 
2289.323399  	96.702012 
2290.758712  	96.668817 
2292.194024  	96.643322 
2293.629337  	96.546197 
2295.064649  	96.480739 
2296.499962  	96.370651 
2297.935274  	96.242219 
2299.370587  	96.220256 
2300.805899  	96.154240 
2302.241212  	96.075888 
2303.676524  	96.072662 
2305.111837  	95.971418 
2306.547149  	95.748156 
2307.982462  	95.480375 
2309.417774  	95.246713 
2310.853087  	95.112249 
2312.288399  	95.020397 
2313.723712  	95.018690 
2315.159024  	95.019421 
2316.594336  	94.837948 
2318.029649  	94.626485 
2319.464961  	94.448015 
2320.900274  	94.232103 
2322.335586  	93.989741 
2323.770899  	93.713175 
2325.206211  	93.667472 
2326.641524  	93.767352 
2328.076836  	93.617466 
2329.512149  	93.406669 
2330.947461  	93.239921 
2332.382774  	93.075885 
2333.818086  	93.172277 
2335.253399  	93.196284 
2336.688711  	93.032868 
2338.124024  	93.009855 
2339.559336  	92.929632 
2340.994649  	92.874241 
2342.429961  	93.013680 
2343.865274  	93.012110 
2345.300586  	93.123906 
2346.735898  	93.736107 
2348.171211  	94.390849 
2349.606523  	94.638805 
2351.041836  	94.254761 
2352.477148  	93.610148 
2353.912461  	93.379670 
2355.347773  	92.801204 
2356.783086  	91.720220 
2358.218398  	90.956094 
2359.653711  	90.631665 
2361.089023  	90.818771 
2362.524336  	90.808133 
2363.959648  	90.797049 
2365.394961  	91.180456 
2366.830273  	91.443176 
2368.265586  	91.959195 
2369.700898  	92.532819 
2371.136211  	92.943725 
2372.571523  	93.526121 
2374.006836  	93.992570 
2375.442148  	94.394620 
2376.877460  	94.828348 
2378.312773  	95.115038 
2379.748085  	95.462495 
2381.183398  	95.846297 
2382.618710  	96.095467 
2384.054023  	96.337644 
2385.489335  	96.553575 
2386.924648  	96.686835 
2388.359960  	96.791081 
2389.795273  	96.817482 
2391.230585  	96.773503 
2392.665898  	96.723266 
2394.101210  	96.680997 
2395.536523  	96.668441 
2396.971835  	96.650058 
2398.407148  	96.607999 
2399.842460  	96.559066 
2401.277773  	96.517208 
2402.713085  	96.544737 
2404.148398  	96.575698 
2405.583710  	96.538311 
2407.019022  	96.522348 
2408.454335  	96.524119 
2409.889647  	96.510247 
2411.324960  	96.488403 
2412.760272  	96.456740 
2414.195585  	96.480146 
2415.630897  	96.502140 
2417.066210  	96.472585 
2418.501522  	96.474664 
2419.936835  	96.447037 
2421.372147  	96.395123 
2422.807460  	96.388365 
2424.242772  	96.365507 
2425.678085  	96.383734 
2427.113397  	96.397976 
2428.548710  	96.309195 
2429.984022  	96.279531 
2431.419335  	96.283128 
2432.854647  	96.213887 
2434.289960  	96.180188 
2435.725272  	96.181385 
2437.160584  	96.203180 
2438.595897  	96.223856 
2440.031209  	96.192277 
2441.466522  	96.196979 
2442.901834  	96.168986 
2444.337147  	96.090855 
2445.772459  	96.119815 
2447.207772  	96.120555 
2448.643084  	96.054184 
2450.078397  	96.057297 
2451.513709  	96.025009 
2452.949022  	95.981097 
2454.384334  	96.013926 
2455.819647  	96.045151 
2457.254959  	96.080196 
2458.690272  	96.078550 
2460.125584  	96.009829 
2461.560897  	95.959647 
2462.996209  	95.939766 
2464.431522  	95.960402 
2465.866834  	95.972309 
2467.302146  	95.920475 
2468.737459  	95.898295 
2470.172771  	95.900408 
2471.608084  	95.908039 
2473.043396  	95.952134 
2474.478709  	95.953419 
2475.914021  	95.929340 
2477.349334  	95.893374 
2478.784646  	95.812327 
2480.219959  	95.792444 
2481.655271  	95.816557 
2483.090584  	95.815791 
2484.525896  	95.824582 
2485.961209  	95.807655 
2487.396521  	95.794842 
2488.831834  	95.791425 
2490.267146  	95.752372 
2491.702459  	95.762218 
2493.137771  	95.771042 
2494.573084  	95.730838 
2496.008396  	95.732347 
2497.443708  	95.718394 
2498.879021  	95.694621 
2500.314333  	95.685394 
2501.749646  	95.624123 
2503.184958  	95.625412 
2504.620271  	95.671413 
2506.055583  	95.627974 
2507.490896  	95.589278 
2508.926208  	95.575644 
2510.361521  	95.572152 
2511.796833  	95.620660 
2513.232146  	95.647429 
2514.667458  	95.636944 
2516.102771  	95.593532 
2517.538083  	95.554248 
2518.973396  	95.602322 
2520.408708  	95.624395 
2521.844021  	95.589561 
2523.279333  	95.576833 
2524.714646  	95.537166 
2526.149958  	95.511520 
2527.585270  	95.485160 
2529.020583  	95.438605 
2530.455895  	95.500872 
2531.891208  	95.540092 
2533.326520  	95.484579 
2534.761833  	95.499588 
2536.197145  	95.493686 
2537.632458  	95.430742 
2539.067770  	95.415961 
2540.503083  	95.420475 
2541.938395  	95.440851 
2543.373708  	95.395911 
2544.809020  	95.290251 
2546.244333  	95.273343 
2547.679645  	95.256457 
2549.114958  	95.242197 
2550.550270  	95.316189 
2551.985583  	95.326091 
2553.420895  	95.301376 
2554.856208  	95.320463 
2556.291520  	95.292571 
2557.726832  	95.265013 
2559.162145  	95.266219 
2560.597457  	95.256981 
2562.032770  	95.225009 
2563.468082  	95.160750 
2564.903395  	95.177746 
2566.338707  	95.246397 
2567.774020  	95.220589 
2569.209332  	95.179975 
2570.644645  	95.154710 
2572.079957  	95.121267 
2573.515270  	95.119615 
2574.950582  	95.082578 
2576.385895  	95.045299 
2577.821207  	95.068143 
2579.256520  	95.057468 
2580.691832  	95.007447 
2582.127145  	94.960381 
2583.562457  	94.966057 
2584.997770  	95.028469 
2586.433082  	95.022854 
2587.868394  	94.992445 
2589.303707  	94.986110 
2590.739019  	94.906791 
2592.174332  	94.850891 
2593.609644  	94.858588 
2595.044957  	94.817978 
2596.480269  	94.789820 
2597.915582  	94.790332 
2599.350894  	94.759962 
2600.786207  	94.752144 
2602.221519  	94.790688 
2603.656832  	94.825745 
2605.092144  	94.787996 
2606.527457  	94.703087 
2607.962769  	94.675154 
2609.398082  	94.684335 
2610.833394  	94.679840 
2612.268707  	94.656901 
2613.704019  	94.620815 
2615.139332  	94.618064 
2616.574644  	94.604475 
2618.009956  	94.559559 
2619.445269  	94.571287 
2620.880581  	94.573840 
2622.315894  	94.511529 
2623.751206  	94.480832 
2625.186519  	94.483586 
2626.621831  	94.462144 
2628.057144  	94.420636 
2629.492456  	94.421194 
2630.927769  	94.465909 
2632.363081  	94.445939 
2633.798394  	94.407912 
2635.233706  	94.430222 
2636.669019  	94.413936 
2638.104331  	94.380820 
2639.539644  	94.379738 
2640.974956  	94.342854 
2642.410269  	94.310205 
2643.845581  	94.288746 
2645.280894  	94.242854 
2646.716206  	94.236416 
2648.151518  	94.238979 
2649.586831  	94.206353 
2651.022143  	94.190804 
2652.457456  	94.187053 
2653.892768  	94.169346 
2655.328081  	94.133920 
2656.763393  	94.106112 
2658.198706  	94.112854 
2659.634018  	94.097708 
2661.069331  	94.070136 
2662.504643  	94.084478 
2663.939956  	94.080594 
2665.375268  	94.051178 
2666.810581  	94.042777 
2668.245893  	94.037471 
2669.681206  	94.037594 
2671.116518  	94.019528 
2672.551831  	93.951093 
2673.987143  	93.899157 
2675.422456  	93.905307 
2676.857768  	93.915243 
2678.293080  	93.888961 
2679.728393  	93.864145 
2681.163705  	93.865733 
2682.599018  	93.853241 
2684.034330  	93.839314 
2685.469643  	93.836257 
2686.904955  	93.802296 
2688.340268  	93.780901 
2689.775580  	93.784879 
2691.210893  	93.743502 
2692.646205  	93.686538 
2694.081518  	93.664100 
2695.516830  	93.668817 
2696.952143  	93.684098 
2698.387455  	93.673809 
2699.822768  	93.645225 
2701.258080  	93.615784 
2702.693393  	93.582422 
2704.128705  	93.573205 
2705.564018  	93.571327 
2706.999330  	93.555908 
2708.434642  	93.537250 
2709.869955  	93.491333 
2711.305267  	93.454148 
2712.740580  	93.450554 
2714.175892  	93.425781 
2715.611205  	93.398594 
2717.046517  	93.385314 
2718.481830  	93.367709 
2719.917142  	93.359872 
2721.352455  	93.322118 
2722.787767  	93.263287 
2724.223080  	93.246864 
2725.658392  	93.243912 
2727.093705  	93.236441 
2728.529017  	93.223526 
2729.964330  	93.189408 
2731.399642  	93.159981 
2732.834955  	93.127634 
2734.270267  	93.099762 
2735.705580  	93.093623 
2737.140892  	93.057956 
2738.576204  	93.019044 
2740.011517  	93.014769 
2741.446829  	93.003517 
2742.882142  	93.003412 
2744.317454  	93.009254 
2745.752767  	92.978334 
2747.188079  	92.933015 
2748.623392  	92.887534 
2750.058704  	92.863779 
2751.494017  	92.860286 
2752.929329  	92.828990 
2754.364642  	92.807090 
2755.799954  	92.816187 
2757.235267  	92.795240 
2758.670579  	92.739278 
2760.105892  	92.690690 
2761.541204  	92.673351 
2762.976517  	92.661237 
2764.411829  	92.642454 
2765.847142  	92.645064 
2767.282454  	92.617132 
2768.717766  	92.563078 
2770.153079  	92.567907 
2771.588391  	92.565048 
2773.023704  	92.518375 
2774.459016  	92.503531 
2775.894329  	92.494691 
2777.329641  	92.468390 
2778.764954  	92.439801 
2780.200266  	92.398733 
2781.635579  	92.374481 
2783.070891  	92.369481 
2784.506204  	92.362463 
2785.941516  	92.350096 
2787.376829  	92.327031 
2788.812141  	92.314329 
2790.247454  	92.276262 
2791.682766  	92.202461 
2793.118079  	92.179017 
2794.553391  	92.169492 
2795.988704  	92.135173 
2797.424016  	92.130035 
2798.859328  	92.107760 
2800.294641  	92.067515 
2801.729953  	92.044345 
2803.165266  	91.986367 
2804.600578  	91.937998 
2806.035891  	91.923652 
2807.471203  	91.894692 
2808.906516  	91.891617 
2810.341828  	91.880843 
2811.777141  	91.820169 
2813.212453  	91.787000 
2814.647766  	91.771839 
2816.083078  	91.738684 
2817.518391  	91.705642 
2818.953703  	91.654028 
2820.389016  	91.601921 
2821.824328  	91.583820 
2823.259641  	91.579067 
2824.694953  	91.548289 
2826.130266  	91.487925 
2827.565578  	91.461798 
2829.000890  	91.461851 
2830.436203  	91.416333 
2831.871515  	91.365740 
2833.306828  	91.344427 
2834.742140  	91.316635 
2836.177453  	91.272198 
2837.612765  	91.193913 
2839.048078  	91.092072 
2840.483390  	90.982105 
2841.918703  	90.804361 
2843.354015  	90.532536 
2844.789328  	90.227230 
2846.224640  	89.949702 
2847.659953  	89.684261 
2849.095265  	89.406503 
2850.530578  	89.219349 
2851.965890  	89.169972 
2853.401203  	89.161295 
2854.836515  	89.206270 
2856.271828  	89.339872 
2857.707140  	89.493528 
2859.142452  	89.633305 
2860.577765  	89.750073 
2862.013077  	89.849420 
2863.448390  	89.936050 
2864.883702  	89.980304 
2866.319015  	89.980420 
2867.754327  	89.944948 
2869.189640  	89.904759 
2870.624952  	89.894402 
2872.060265  	89.892139 
2873.495577  	89.924080 
2874.930890  	89.998306 
2876.366202  	90.052609 
2877.801515  	90.107308 
2879.236827  	90.155989 
2880.672140  	90.169947 
2882.107452  	90.205649 
2883.542765  	90.224179 
2884.978077  	90.179211 
2886.413390  	90.141578 
2887.848702  	90.112268 
2889.284014  	90.054914 
2890.719327  	89.978936 
2892.154639  	89.896042 
2893.589952  	89.823193 
2895.025264  	89.746739 
2896.460577  	89.663531 
2897.895889  	89.584184 
2899.331202  	89.485651 
2900.766514  	89.382744 
2902.201827  	89.273445 
2903.637139  	89.148837 
2905.072452  	89.048737 
2906.507764  	88.909535 
2907.943077  	88.688390 
2909.378389  	88.475722 
2910.813702  	88.276555 
2912.249014  	88.047056 
2913.684327  	87.773399 
2915.119639  	87.467634 
2916.554952  	87.218557 
2917.990264  	87.020305 
2919.425576  	86.834627 
2920.860889  	86.734157 
2922.296201  	86.695132 
2923.731514  	86.715880 
2925.166826  	86.869878 
2926.602139  	87.063716 
2928.037451  	87.220844 
2929.472764  	87.380118 
2930.908076  	87.567201 
2932.343389  	87.778769 
2933.778701  	87.973025 
2935.214014  	88.174514 
2936.649326  	88.396715 
2938.084639  	88.568056 
2939.519951  	88.732359 
2940.955264  	88.921343 
2942.390576  	89.059435 
2943.825889  	89.149464 
2945.261201  	89.218224 
2946.696514  	89.272126 
2948.131826  	89.291532 
2949.567138  	89.232549 
2951.002451  	89.151986 
2952.437763  	89.090831 
2953.873076  	89.029655 
2955.308388  	88.999896 
2956.743701  	88.977806 
2958.179013  	88.970660 
2959.614326  	89.035798 
2961.049638  	89.106871 
2962.484951  	89.172910 
2963.920263  	89.269695 
2965.355576  	89.355649 
2966.790888  	89.468070 
2968.226201  	89.625601 
2969.661513  	89.768224 
2971.096826  	89.871863 
2972.532138  	89.936370 
2973.967451  	90.030787 
2975.402763  	90.167466 
2976.838076  	90.265996 
2978.273388  	90.353589 
2979.708700  	90.413233 
2981.144013  	90.401463 
2982.579325  	90.439856 
2984.014638  	90.551696 
2985.449950  	90.631793 
2986.885263  	90.676721 
2988.320575  	90.727820 
2989.755888  	90.790787 
2991.191200  	90.818535 
2992.626513  	90.808770 
2994.061825  	90.833082 
2995.497138  	90.867145 
2996.932450  	90.890412 
2998.367763  	90.933720 
2999.803075  	90.928508 
3001.238388  	90.872431 
3002.673700  	90.836506 
3004.109013  	90.795095 
3005.544325  	90.766179 
3006.979638  	90.782883 
3008.414950  	90.776805 
3009.850262  	90.735787 
3011.285575  	90.714285 
3012.720887  	90.718344 
3014.156200  	90.725897 
3015.591512  	90.722928 
3017.026825  	90.711981 
3018.462137  	90.720832 
3019.897450  	90.749709 
3021.332762  	90.727594 
3022.768075  	90.654462 
3024.203387  	90.626773 
3025.638700  	90.619787 
3027.074012  	90.577135 
3028.509325  	90.539689 
3029.944637  	90.483090 
3031.379950  	90.416144 
3032.815262  	90.435815 
3034.250575  	90.493772 
3035.685887  	90.503504 
3037.121200  	90.485153 
3038.556512  	90.482036 
3039.991824  	90.509866 
3041.427137  	90.511644 
3042.862449  	90.470579 
3044.297762  	90.456066 
3045.733074  	90.436993 
3047.168387  	90.371575 
3048.603699  	90.328906 
3050.039012  	90.338390 
3051.474324  	90.361105 
3052.909637  	90.347493 
3054.344949  	90.274309 
3055.780262  	90.205736 
3057.215574  	90.203748 
3058.650887  	90.219260 
3060.086199  	90.203211 
3061.521512  	90.192251 
3062.956824  	90.184319 
3064.392137  	90.150307 
3065.827449  	90.160685 
3067.262762  	90.213287 
3068.698074  	90.227352 
3070.133386  	90.261847 
3071.568699  	90.309521 
3073.004011  	90.286828 
3074.439324  	90.280644 
3075.874636  	90.308598 
3077.309949  	90.275540 
3078.745261  	90.222551 
3080.180574  	90.205076 
3081.615886  	90.222201 
3083.051199  	90.269270 
3084.486511  	90.305052 
3085.921824  	90.308042 
3087.357136  	90.295631 
3088.792449  	90.306387 
3090.227761  	90.329343 
3091.663074  	90.305487 
3093.098386  	90.278491 
3094.533699  	90.264172 
3095.969011  	90.224402 
3097.404324  	90.241571 
3098.839636  	90.285456 
3100.274948  	90.259634 
3101.710261  	90.247829 
3103.145573  	90.259153 
3104.580886  	90.249894 
3106.016198  	90.275839 
3107.451511  	90.312371 
3108.886823  	90.330113 
3110.322136  	90.336715 
3111.757448  	90.309886 
3113.192761  	90.290548 
3114.628073  	90.287922 
3116.063386  	90.270106 
3117.498698  	90.264962 
3118.934011  	90.271853 
3120.369323  	90.270353 
3121.804636  	90.253681 
3123.239948  	90.253525 
3124.675261  	90.297196 
3126.110573  	90.282076 
3127.545886  	90.227769 
3128.981198  	90.278620 
3130.416510  	90.322217 
3131.851823  	90.250673 
3133.287135  	90.195983 
3134.722448  	90.226913 
3136.157760  	90.272259 
3137.593073  	90.254347 
3139.028385  	90.201996 
3140.463698  	90.189135 
3141.899010  	90.176866 
3143.334323  	90.162358 
3144.769635  	90.170089 
3146.204948  	90.145778 
3147.640260  	90.115610 
3149.075573  	90.099260 
3150.510885  	90.068480 
3151.946198  	90.058837 
3153.381510  	90.044471 
3154.816823  	90.014226 
3156.252135  	90.008918 
3157.687448  	89.990395 
3159.122760  	89.973112 
3160.558072  	89.972849 
3161.993385  	89.934244 
3163.428697  	89.880645 
3164.864010  	89.857284 
3166.299322  	89.876797 
3167.734635  	89.882529 
3169.169947  	89.819917 
3170.605260  	89.802540 
3172.040572  	89.828734 
3173.475885  	89.796267 
3174.911197  	89.791081 
3176.346510  	89.796519 
3177.781822  	89.747568 
3179.217135  	89.726120 
3180.652447  	89.706567 
3182.087760  	89.693173 
3183.523072  	89.707451 
3184.958385  	89.657151 
3186.393697  	89.635488 
3187.829010  	89.676232 
3189.264322  	89.636365 
3190.699634  	89.601334 
3192.134947  	89.638582 
3193.570259  	89.651117 
3195.005572  	89.628093 
3196.440884  	89.590062 
3197.876197  	89.583849 
3199.311509  	89.604569 
3200.746822  	89.579685 
3202.182134  	89.564004 
3203.617447  	89.574900 
3205.052759  	89.579210 
3206.488072  	89.605968 
3207.923384  	89.580254 
3209.358697  	89.508238 
3210.794009  	89.526084 
3212.229322  	89.567576 
3213.664634  	89.531542 
3215.099947  	89.487025 
3216.535259  	89.495822 
3217.970572  	89.518196 
3219.405884  	89.502908 
3220.841196  	89.488677 
3222.276509  	89.504239 
3223.711821  	89.499659 
3225.147134  	89.474363 
3226.582446  	89.446237 
3228.017759  	89.425210 
3229.453071  	89.439094 
3230.888384  	89.456821 
3232.323696  	89.454773 
3233.759009  	89.447333 
3235.194321  	89.418445 
3236.629634  	89.371747 
3238.064946  	89.327105 
3239.500259  	89.298515 
3240.935571  	89.292417 
3242.370884  	89.269137 
3243.806196  	89.202437 
3245.241509  	89.144202 
3246.676821  	89.162109 
3248.112134  	89.193450 
3249.547446  	89.134247 
3250.982758  	89.057167 
3252.418071  	89.012035 
3253.853383  	88.936818 
3255.288696  	88.895539 
3256.724008  	88.906703 
3258.159321  	88.888411 
3259.594633  	88.858603 
3261.029946  	88.822239 
3262.465258  	88.785095 
3263.900571  	88.743953 
3265.335883  	88.669922 
3266.771196  	88.671451 
3268.206508  	88.724455 
3269.641821  	88.702620 
3271.077133  	88.689304 
3272.512446  	88.654322 
3273.947758  	88.565040 
3275.383071  	88.570762 
3276.818383  	88.591691 
3278.253695  	88.583493 
3279.689008  	88.647194 
3281.124320  	88.679551 
3282.559633  	88.672151 
3283.994945  	88.703373 
3285.430258  	88.729344 
3286.865570  	88.766308 
3288.300883  	88.799798 
3289.736195  	88.836505 
3291.171508  	88.922033 
3292.606820  	88.964277 
3294.042133  	88.988604 
3295.477445  	89.061070 
3296.912758  	89.110117 
3298.348070  	89.166204 
3299.783383  	89.238035 
3301.218695  	89.296359 
3302.654008  	89.380003 
3304.089320  	89.444629 
3305.524633  	89.506140 
3306.959945  	89.575261 
3308.395257  	89.574654 
3309.830570  	89.607044 
3311.265882  	89.698960 
3312.701195  	89.745856 
3314.136507  	89.824856 
3315.571820  	89.933888 
3317.007132  	89.990196 
3318.442445  	90.050562 
3319.877757  	90.134946 
3321.313070  	90.200026 
3322.748382  	90.230191 
3324.183695  	90.276984 
3325.619007  	90.369766 
3327.054320  	90.425690 
3328.489632  	90.467689 
3329.924945  	90.528483 
3331.360257  	90.542514 
3332.795570  	90.596135 
3334.230882  	90.686546 
3335.666195  	90.683270 
3337.101507  	90.692521 
3338.536819  	90.791777 
3339.972132  	90.901531 
3341.407444  	91.006363 
3342.842757  	91.088060 
3344.278069  	91.148001 
3345.713382  	91.193752 
3347.148694  	91.214303 
3348.584007  	91.249810 
3350.019319  	91.285524 
3351.454632  	91.313033 
3352.889944  	91.359569 
3354.325257  	91.374474 
3355.760569  	91.377406 
3357.195882  	91.425442 
3358.631194  	91.489886 
3360.066507  	91.541914 
3361.501819  	91.558069 
3362.937132  	91.579646 
3364.372444  	91.631912 
3365.807757  	91.658422 
3367.243069  	91.720025 
3368.678381  	91.829244 
3370.113694  	91.896726 
3371.549006  	91.961910 
3372.984319  	92.013854 
3374.419631  	92.028871 
3375.854944  	92.087434 
3377.290256  	92.144909 
3378.725569  	92.156290 
3380.160881  	92.193905 
3381.596194  	92.258607 
3383.031506  	92.284144 
3384.466819  	92.266801 
3385.902131  	92.302334 
3387.337444  	92.379135 
3388.772756  	92.409826 
3390.208069  	92.444678 
3391.643381  	92.443858 
3393.078694  	92.424776 
3394.514006  	92.548215 
3395.949319  	92.601579 
3397.384631  	92.500749 
3398.819943  	92.557072 
3400.255256  	92.686060 
3401.690568  	92.710917 
3403.125881  	92.756019 
3404.561193  	92.821039 
3405.996506  	92.882578 
3407.431818  	92.953329 
3408.867131  	92.987209 
3410.302443  	93.012675 
3411.737756  	93.038992 
3413.173068  	93.062287 
3414.608381  	93.077006 
3416.043693  	93.094043 
3417.479006  	93.175921 
3418.914318  	93.157207 
3420.349631  	92.972791 
3421.784943  	92.951312 
3423.220256  	93.127838 
3424.655568  	93.285568 
3426.090881  	93.380208 
3427.526193  	93.406427 
3428.961505  	93.458848 
3430.396818  	93.536132 
3431.832130  	93.543390 
3433.267443  	93.583006 
3434.702755  	93.659134 
3436.138068  	93.689366 
3437.573380  	93.696581 
3439.008693  	93.696064 
3440.444005  	93.706446 
3441.879318  	93.649484 
3443.314630  	93.611195 
3444.749943  	93.724491 
3446.185255  	93.635341 
3447.620568  	93.444391 
3449.055880  	93.695060 
3450.491193  	93.987577 
3451.926505  	94.053364 
3453.361818  	94.149109 
3454.797130  	94.211511 
3456.232443  	94.235799 
3457.667755  	94.281778 
3459.103067  	94.250473 
3460.538380  	94.216848 
3461.973692  	94.196640 
3463.409005  	94.221954 
3464.844317  	94.325403 
3466.279630  	94.345759 
3467.714942  	94.412525 
3469.150255  	94.560503 
3470.585567  	94.580911 
3472.020880  	94.637371 
3473.456192  	94.695794 
3474.891505  	94.607839 
3476.326817  	94.666863 
3477.762130  	94.838907 
3479.197442  	94.815092 
3480.632755  	94.603099 
3482.068067  	94.442251 
3483.503380  	94.632649 
3484.938692  	94.938440 
3486.374005  	94.948997 
3487.809317  	94.864896 
3489.244629  	94.947490 
3490.679942  	95.094258 
3492.115254  	95.214178 
3493.550567  	95.268336 
3494.985879  	95.238416 
3496.421192  	95.163030 
3497.856504  	95.195401 
3499.291817  	95.330282 
3500.727129  	95.231113 
3502.162442  	94.861664 
3503.597754  	94.671633 
3505.033067  	94.955955 
3506.468379  	95.400516 
3507.903692  	95.465136 
3509.339004  	95.221447 
3510.774317  	95.329767 
3512.209629  	95.688303 
3513.644942  	95.862610 
3515.080254  	95.952021 
3516.515567  	95.984739 
3517.950879  	95.936046 
3519.386191  	95.959930 
3520.821504  	95.942974 
3522.256816  	95.593539 
3523.692129  	95.192456 
3525.127441  	95.318841 
3526.562754  	95.494170 
3527.998066  	95.365371 
3529.433379  	95.538728 
3530.868691  	95.942931 
3532.304004  	96.243302 
3533.739316  	96.476456 
3535.174629  	96.324305 
3536.609941  	96.087500 
3538.045254  	96.388580 
3539.480566  	96.622577 
3540.915879  	96.590618 
3542.351191  	96.536112 
3543.786504  	96.165786 
3545.221816  	95.646488 
3546.657129  	95.480425 
3548.092441  	95.860221 
3549.527753  	96.552297 
3550.963066  	96.722974 
3552.398378  	96.365035 
3553.833691  	96.487291 
3555.269003  	96.951723 
3556.704316  	97.205159 
3558.139628  	97.195963 
3559.574941  	96.901595 
3561.010253  	96.676417 
3562.445566  	96.650569 
3563.880878  	96.394306 
3565.316191  	95.607548 
3566.751503  	94.324877 
3568.186816  	94.326318 
3569.622128  	95.939162 
3571.057441  	96.998836 
3572.492753  	97.390832 
3573.928066  	97.479806 
3575.363378  	97.429098 
3576.798691  	97.508483 
3578.234003  	97.588443 
3579.669315  	97.534230 
3581.104628  	97.558464 
3582.539940  	97.549297 
3583.975253  	97.418473 
3585.410565  	96.988268 
3586.845878  	95.799992 
3588.281190  	95.060116 
3589.716503  	96.224055 
3591.151815  	97.225635 
3592.587128  	97.290392 
3594.022440  	96.878596 
3595.457753  	96.741885 
3596.893065  	97.087490 
3598.328378  	97.399234 
3599.763690  	97.340291 
3601.199003  	97.253826 
3602.634315  	97.725944 
3604.069628  	98.247603 
3605.504940  	98.054146 
3606.940253  	97.302732 
3608.375565  	96.675845 
3609.810877  	96.864606 
3611.246190  	97.274302 
3612.681502  	97.000316 
3614.116815  	96.689684 
3615.552127  	97.187515 
3616.987440  	97.349684 
3618.422752  	96.756490 
3619.858065  	96.355192 
3621.293377  	97.031052 
3622.728690  	98.051149 
3624.164002  	98.391159 
3625.599315  	98.062930 
3627.034627  	97.553785 
3628.469940  	95.864029 
3629.905252  	94.744827 
3631.340565  	97.189043 
3632.775877  	98.279657 
3634.211190  	98.215330 
3635.646502  	98.749239 
3637.081815  	99.243535 
3638.517127  	99.147478 
3639.952439  	99.222269 
3641.387752  	99.112409 
3642.823064  	98.719323 
3644.258377  	98.823896 
3645.693689  	98.402020 
3647.129002  	96.415407 
3648.564314  	94.655075 
3649.999627  	94.121436 
3651.434939  	94.732765 
3652.870252  	97.330897 
3654.305564  	98.765006 
3655.740877  	98.332695 
3657.176189  	97.987029 
3658.611502  	99.044725 
3660.046814  	99.795181 
3661.482127  	100.025941 
3662.917439  	99.984625 
3664.352752  	99.923947 
3665.788064  	99.900600 
3667.223377  	99.403903 
3668.658689  	97.997060 
3670.094001  	96.016459 
3671.529314  	96.518816 
3672.964626  	98.079362 
3674.399939  	97.256058 
3675.835251  	94.250697 
3677.270564  	96.254733 
3678.705876  	97.977885 
3680.141189  	98.240978 
3681.576501  	99.018373 
3683.011814  	99.617179 
3684.447126  	99.649821 
3685.882439  	99.607800 
3687.317751  	98.781782 
3688.753064  	97.028384 
3690.188376  	96.755343 
3691.623689  	97.508695 
3693.059001  	98.410316 
3694.494314  	99.183135 
3695.929626  	99.318801 
3697.364939  	99.302634 
3698.800251  	99.544764 
3700.235563  	99.361604 
3701.670876  	98.652031 
3703.106188  	98.583022 
3704.541501  	99.067769 
3705.976813  	99.156856 
3707.412126  	98.870042 
3708.847438  	98.288116 
3710.282751  	97.185826 
3711.718063  	96.253179 
3713.153376  	96.747669 
3714.588688  	98.100379 
3716.024001  	99.215676 
3717.459313  	99.506614 
3718.894626  	99.121128 
3720.329938  	98.839217 
3721.765251  	98.428144 
3723.200563  	97.967666 
3724.635876  	98.107147 
3726.071188  	97.965305 
3727.506501  	97.894817 
3728.941813  	98.719479 
3730.377125  	98.849888 
3731.812438  	97.697937 
3733.247750  	96.865115 
3734.683063  	96.354473 
3736.118375  	95.178985 
3737.553688  	96.426230 
3738.989000  	97.935659 
3740.424313  	98.253857 
3741.859625  	98.396099 
3743.294938  	97.931545 
3744.730250  	95.663789 
3746.165563  	96.275485 
3747.600875  	97.541846 
3749.036188  	96.921219 
3750.471500  	95.769264 
3751.906813  	95.751741 
3753.342125  	97.009815 
3754.777438  	98.627293 
3756.212750  	98.913661 
3757.648063  	98.525735 
3759.083375  	98.579677 
3760.518687  	98.664290 
3761.954000  	99.209912 
3763.389312  	99.826965 
3764.824625  	99.374758 
3766.259937  	98.771002 
3767.695250  	99.225105 
3769.130562  	99.105314 
3770.565875  	98.504072 
3772.001187  	99.030985 
3773.436500  	99.724414 
3774.871812  	99.905718 
3776.307125  	99.909305 
3777.742437  	99.639900 
3779.177750  	98.803770 
3780.613062  	98.701899 
3782.048375  	99.561670 
3783.483687  	99.525252 
3784.919000  	99.060486 
3786.354312  	99.608373 
3787.789625  	100.129257 
3789.224937  	100.079495 
3790.660249  	100.128087 
3792.095562  	100.215570 
3793.530874  	100.169980 
3794.966187  	99.773542 
3796.401499  	98.678128 
3797.836812  	98.207851 
3799.272124  	98.650238 
3800.707437  	97.899300 
3802.142749  	96.045741 
3803.578062  	97.454220 
3805.013374  	99.169980 
3806.448687  	98.901650 
3807.883999  	97.974937 
3809.319312  	99.083241 
3810.754624  	100.063642 
3812.189937  	100.206185 
3813.625249  	99.908028 
3815.060562  	98.825738 
3816.495874  	97.546969 
3817.931187  	98.367806 
3819.366499  	98.470234 
3820.801811  	96.659750 
3822.237124  	96.311037 
3823.672436  	98.504982 
3825.107749  	99.314125 
3826.543061  	98.911003 
3827.978374  	98.961232 
3829.413686  	99.598238 
3830.848999  	99.370949 
3832.284311  	98.561963 
3833.719624  	98.433899 
3835.154936  	98.423480 
3836.590249  	97.997594 
3838.025561  	97.135968 
3839.460874  	96.472915 
3840.896186  	97.303958 
3842.331499  	98.388818 
3843.766811  	98.515273 
3845.202124  	98.776684 
3846.637436  	99.599120 
3848.072749  	99.792271 
3849.508061  	99.332987 
3850.943373  	98.691879 
3852.378686  	96.895540 
3853.813998  	94.485698 
3855.249311  	96.626058 
3856.684623  	97.867799 
3858.119936  	98.533525 
3859.555248  	99.487790 
3860.990561  	99.320267 
3862.425873  	98.471076 
3863.861186  	98.298560 
3865.296498  	98.083357 
3866.731811  	98.696736 
3868.167123  	99.166983 
3869.602436  	97.607876 
3871.037748  	97.008018 
3872.473061  	98.542494 
3873.908373  	98.286373 
3875.343686  	98.178062 
3876.778998  	99.544313 
3878.214311  	99.928299 
3879.649623  	98.955141 
3881.084935  	97.876877 
3882.520248  	98.533940 
3883.955560  	99.234087 
3885.390873  	98.282809 
3886.826185  	97.866798 
3888.261498  	99.544941 
3889.696810  	100.058227 
3891.132123  	98.859445 
3892.567435  	98.089202 
3894.002748  	98.896553 
3895.438060  	99.769123 
3896.873373  	99.683427 
3898.308685  	98.651238 
3899.743998  	97.833950 
3901.179310  	97.842027 
3902.614623  	97.554209 
3904.049935  	96.998414 
3905.485248  	97.541526 
3906.920560  	98.783506 
3908.355873  	99.628665 
3909.791185  	99.984243 
3911.226497  	100.002154 
3912.661810  	100.056604 
3914.097122  	100.227620 
3915.532435  	99.872288 
3916.967747  	99.107396 
3918.403060  	99.000948 
3919.838372  	99.125434 
3921.273685  	99.202362 
3922.708997  	99.342099 
3924.144310  	98.844787 
3925.579622  	98.485933 
3927.014935  	99.266360 
3928.450247  	99.631792 
3929.885560  	99.224853 
3931.320872  	98.905441 
3932.756185  	98.822568 
3934.191497  	99.190359 
3935.626810  	99.748032 
3937.062122  	99.802674 
3938.497435  	99.703346 
3939.932747  	99.846106 
3941.368059  	99.662341 
3942.803372  	99.058235 
3944.238684  	99.003301 
3945.673997  	99.469120 
3947.109309  	99.458785 
3948.544622  	98.982605 
3949.979934  	98.945577 
3951.415247  	99.346621 
3952.850559  	99.644902 
3954.285872  	99.729050 
3955.721184  	99.642251 
3957.156497  	99.635982 
3958.591809  	99.827728 
3960.027122  	99.843142 
3961.462434  	99.576237 
3962.897747  	99.448917 
3964.333059  	99.658320 
3965.768372  	99.863983 
3967.203684  	99.826753 
3968.638997  	99.703560 
3970.074309  	99.644209 
3971.509621  	99.635521 
3972.944934  	99.647624 
3974.380246  	99.585324 
3975.815559  	99.518227 
3977.250871  	99.620289 
3978.686184  	99.755420 
3980.121496  	99.763753 
3981.556809  	99.724066 
3982.992121  	99.732857 
3984.427434  	99.764669 
3985.862746  	99.772130 
3987.298059  	99.802481 
3988.733371  	99.781425 
3990.168684  	99.621547 
3991.603996  	99.597744 
3993.039309  	99.735750 
3994.474621  	99.691610 
3995.909934  	99.619086 
3997.345246  	99.740035 
3998.780559  	99.809516 
4000.215871  	99.780328 