##TITLE=No Description
##DATA TYPE=INFRARED SPECTRUM
##XUNITS=1/CM
##YUNITS=%T
400.452181  	70.412336 
401.887493  	63.975992 
403.322806  	63.163046 
404.758118  	66.270308 
406.193431  	73.070916 
407.628743  	76.006526 
409.064056  	76.676683 
410.499368  	75.965807 
411.934681  	69.964496 
413.369993  	64.901713 
414.805306  	62.610665 
416.240618  	61.540508 
417.675931  	66.329386 
419.111243  	73.497036 
420.546556  	63.003570 
421.981868  	65.549744 
423.417180  	68.647872 
424.852493  	72.442045 
426.287805  	78.173929 
427.723118  	76.019944 
429.158430  	72.326769 
430.593743  	72.224067 
432.029055  	69.459673 
433.464368  	67.801398 
434.899680  	68.412107 
436.334993  	66.800373 
437.770305  	66.805461 
439.205618  	68.504363 
440.640930  	70.873913 
442.076243  	72.708631 
443.511555  	69.965363 
444.946868  	68.816322 
446.382180  	69.936303 
447.817493  	69.348658 
449.252805  	67.292779 
450.688118  	63.634483 
452.123430  	64.149956 
453.558742  	70.147111 
454.994055  	71.291658 
456.429367  	72.572434 
457.864680  	76.069871 
459.299992  	73.765084 
460.735305  	69.875624 
462.170617  	64.871645 
463.605930  	63.510977 
465.041242  	68.053055 
466.476555  	67.826081 
467.911867  	66.266626 
469.347180  	67.294104 
470.782492  	62.954965 
472.217805  	61.272421 
473.653117  	66.882274 
475.088430  	66.957559 
476.523742  	64.849621 
477.959055  	65.203885 
479.394367  	66.399363 
480.829680  	68.560839 
482.264992  	69.349969 
483.700304  	67.605237 
485.135617  	66.632789 
486.570929  	66.533234 
488.006242  	66.600869 
489.441554  	67.140707 
490.876867  	67.602628 
492.312179  	67.292757 
493.747492  	66.552192 
495.182804  	66.135036 
496.618117  	66.025544 
498.053429  	66.336463 
499.488742  	66.617021 
500.924054  	65.929749 
502.359367  	66.022760 
503.794679  	67.188723 
505.229992  	67.158313 
506.665304  	67.162514 
508.100617  	67.640775 
509.535929  	67.922614 
510.971242  	68.757976 
512.406554  	69.165355 
513.841866  	68.153946 
515.277179  	66.600167 
516.712491  	65.683458 
518.147804  	66.454155 
519.583116  	67.667841 
521.018429  	68.205212 
522.453741  	68.228143 
523.889054  	67.020377 
525.324366  	65.597520 
526.759679  	65.626710 
528.194991  	65.974721 
529.630304  	66.336441 
531.065616  	67.001312 
532.500929  	67.806920 
533.936241  	68.614558 
535.371554  	68.135652 
536.806866  	67.306096 
538.242179  	67.832788 
539.677491  	68.168920 
541.112804  	68.357202 
542.548116  	69.155206 
543.983428  	69.556871 
545.418741  	70.211258 
546.854053  	70.892530 
548.289366  	70.478482 
549.724678  	70.369091 
551.159991  	70.827868 
552.595303  	70.817873 
554.030616  	70.486161 
555.465928  	70.104544 
556.901241  	70.212725 
558.336553  	70.523937 
559.771866  	70.121732 
561.207178  	69.822046 
562.642491  	70.300605 
564.077803  	70.681957 
565.513116  	70.673055 
566.948428  	70.843725 
568.383741  	71.087730 
569.819053  	71.120822 
571.254366  	71.329303 
572.689678  	71.478958 
574.124990  	71.250899 
575.560303  	71.336355 
576.995615  	71.424734 
578.430928  	70.983462 
579.866240  	71.171131 
581.301553  	72.063844 
582.736865  	72.556610 
584.172178  	72.849325 
585.607490  	72.973336 
587.042803  	72.734998 
588.478115  	72.556060 
589.913428  	72.727884 
591.348740  	73.038583 
592.784053  	72.900683 
594.219365  	72.578752 
595.654678  	72.588897 
597.089990  	72.511496 
598.525303  	72.374808 
599.960615  	72.282647 
601.395928  	71.925329 
602.831240  	71.803268 
604.266552  	72.015767 
605.701865  	72.210338 
607.137177  	72.529850 
608.572490  	72.776383 
610.007802  	72.925143 
611.443115  	73.250374 
612.878427  	73.459271 
614.313740  	73.633347 
615.749052  	73.994813 
617.184365  	74.122279 
618.619677  	73.909600 
620.054990  	73.947216 
621.490302  	74.319776 
622.925615  	74.286943 
624.360927  	73.905929 
625.796240  	74.154753 
627.231552  	74.628593 
628.666865  	74.637783 
630.102177  	74.577062 
631.537490  	74.541932 
632.972802  	74.614853 
634.408114  	74.721098 
635.843427  	74.616996 
637.278739  	74.794349 
638.714052  	74.986836 
640.149364  	74.823513 
641.584677  	74.924869 
643.019989  	74.950010 
644.455302  	74.804618 
645.890614  	75.038419 
647.325927  	75.026784 
648.761239  	74.904162 
650.196552  	75.190866 
651.631864  	75.306449 
653.067177  	75.387988 
654.502489  	75.486596 
655.937802  	75.484616 
657.373114  	75.705095 
658.808427  	75.629752 
660.243739  	75.470733 
661.679051  	75.855687 
663.114364  	76.005205 
664.549676  	75.970892 
665.984989  	76.263478 
667.420301  	76.197235 
668.855614  	75.132299 
670.290926  	75.687367 
671.726239  	76.218294 
673.161551  	76.443490 
674.596864  	76.356221 
676.032176  	76.290768 
677.467489  	76.237905 
678.902801  	76.000906 
680.338114  	75.937063 
681.773426  	76.166011 
683.208739  	76.278491 
684.644051  	76.147687 
686.079364  	76.051103 
687.514676  	76.116047 
688.949989  	76.059182 
690.385301  	76.062350 
691.820613  	76.370976 
693.255926  	76.527980 
694.691238  	76.578374 
696.126551  	76.717790 
697.561863  	76.662710 
698.997176  	76.690957 
700.432488  	76.807341 
701.867801  	76.761937 
703.303113  	77.008171 
704.738426  	77.478826 
706.173738  	77.847781 
707.609051  	78.192237 
709.044363  	78.265551 
710.479676  	78.289430 
711.914988  	78.580981 
713.350301  	78.812930 
714.785613  	78.974188 
716.220926  	79.069260 
717.656238  	79.066607 
719.091551  	79.172008 
720.526863  	79.226314 
721.962175  	79.336591 
723.397488  	79.610029 
724.832800  	79.673317 
726.268113  	79.701505 
727.703425  	79.872772 
729.138738  	79.978107 
730.574050  	80.095995 
732.009363  	80.169562 
733.444675  	80.216618 
734.879988  	80.376011 
736.315300  	80.492507 
737.750613  	80.640374 
739.185925  	80.818912 
740.621238  	80.894837 
742.056550  	81.000168 
743.491863  	81.020665 
744.927175  	81.010714 
746.362488  	81.166320 
747.797800  	81.247149 
749.233113  	81.319851 
750.668425  	81.520905 
752.103737  	81.636955 
753.539050  	81.650819 
754.974362  	81.584941 
756.409675  	81.540657 
757.844987  	81.518856 
759.280300  	81.296753 
760.715612  	81.060087 
762.150925  	80.877428 
763.586237  	80.638485 
765.021550  	80.562835 
766.456862  	80.523743 
767.892175  	80.410771 
769.327487  	80.380589 
770.762800  	80.280811 
772.198112  	80.115408 
773.633425  	79.739428 
775.068737  	79.062472 
776.504050  	78.820596 
777.939362  	79.180707 
779.374675  	79.699306 
780.809987  	80.343317 
782.245299  	80.785498 
783.680612  	80.950930 
785.115924  	81.163773 
786.551237  	81.248689 
787.986549  	81.242333 
789.421862  	81.317920 
790.857174  	81.357125 
792.292487  	81.403575 
793.727799  	81.409620 
795.163112  	81.432234 
796.598424  	81.584569 
798.033737  	81.600820 
799.469049  	81.561787 
800.904362  	81.668128 
802.339674  	81.755238 
803.774987  	81.803747 
805.210299  	81.755914 
806.645612  	81.632252 
808.080924  	81.655089 
809.516237  	81.747625 
810.951549  	81.816533 
812.386861  	81.859455 
813.822174  	81.885171 
815.257486  	82.025920 
816.692799  	82.161977 
818.128111  	82.212069 
819.563424  	82.296024 
820.998736  	82.329553 
822.434049  	82.356012 
823.869361  	82.453467 
825.304674  	82.531510 
826.739986  	82.590220 
828.175299  	82.586352 
829.610611  	82.616237 
831.045924  	82.731708 
832.481236  	82.704672 
833.916549  	82.638308 
835.351861  	82.592179 
836.787174  	82.427921 
838.222486  	82.328805 
839.657799  	82.217011 
841.093111  	81.986860 
842.528423  	81.884650 
843.963736  	81.767295 
845.399048  	81.474855 
846.834361  	81.128282 
848.269673  	80.777292 
849.704986  	80.637301 
851.140298  	80.804626 
852.575611  	81.156736 
854.010923  	81.591667 
855.446236  	81.839981 
856.881548  	81.925912 
858.316861  	82.028174 
859.752173  	82.007826 
861.187486  	81.946494 
862.622798  	81.957105 
864.058111  	81.959401 
865.493423  	81.988718 
866.928736  	81.978999 
868.364048  	81.940627 
869.799361  	81.908481 
871.234673  	81.765225 
872.669985  	81.686204 
874.105298  	81.707128 
875.540610  	81.651447 
876.975923  	81.659261 
878.411235  	81.698469 
879.846548  	81.677560 
881.281860  	81.699596 
882.717173  	81.728016 
884.152485  	81.865898 
885.587798  	82.078473 
887.023110  	82.145075 
888.458423  	82.252852 
889.893735  	82.428530 
891.329048  	82.511712 
892.764360  	82.608496 
894.199673  	82.702068 
895.634985  	82.794119 
897.070298  	82.893768 
898.505610  	82.893228 
899.940923  	82.917722 
901.376235  	82.987246 
902.811547  	83.046581 
904.246860  	83.186480 
905.682172  	83.291357 
907.117485  	83.366995 
908.552797  	83.493371 
909.988110  	83.558226 
911.423422  	83.674364 
912.858735  	83.839104 
914.294047  	83.912476 
915.729360  	84.019208 
917.164672  	84.102872 
918.599985  	84.104509 
920.035297  	84.107939 
921.470610  	84.000405 
922.905922  	83.834329 
924.341235  	83.705299 
925.776547  	83.539546 
927.211860  	83.388781 
928.647172  	83.236059 
930.082485  	83.055981 
931.517797  	82.912517 
932.953109  	82.778753 
934.388422  	82.731568 
935.823734  	82.762103 
937.259047  	82.757063 
938.694359  	82.770293 
940.129672  	82.697839 
941.564984  	82.499505 
943.000297  	82.306190 
944.435609  	82.038133 
945.870922  	81.811358 
947.306234  	81.798028 
948.741547  	81.894868 
950.176859  	82.162461 
951.612172  	82.523478 
953.047484  	82.726541 
954.482797  	82.785685 
955.918109  	82.695383 
957.353422  	82.532892 
958.788734  	82.417575 
960.224047  	82.242018 
961.659359  	82.048624 
963.094671  	81.892405 
964.529984  	81.693633 
965.965296  	81.486538 
967.400609  	81.238415 
968.835921  	80.983251 
970.271234  	80.781208 
971.706546  	80.515922 
973.141859  	80.278871 
974.577171  	80.115160 
976.012484  	79.889262 
977.447796  	79.719566 
978.883109  	79.614617 
980.318421  	79.467310 
981.753734  	79.324449 
983.189046  	79.131513 
984.624359  	78.952372 
986.059671  	78.861316 
987.494984  	78.731116 
988.930296  	78.629807 
990.365609  	78.574050 
991.800921  	78.475564 
993.236233  	78.422194 
994.671546  	78.343632 
996.106858  	78.202997 
997.542171  	78.128424 
998.977483  	78.060879 
1000.412796  	77.961877 
1001.848108  	77.831203 
1003.283421  	77.608824 
1004.718733  	77.293335 
1006.154046  	76.865378 
1007.589358  	76.457650 
1009.024671  	76.194338 
1010.459983  	75.939609 
1011.895296  	75.711853 
1013.330608  	75.544148 
1014.765921  	75.323148 
1016.201233  	75.141109 
1017.636546  	74.985119 
1019.071858  	74.729242 
1020.507171  	74.468295 
1021.942483  	74.255561 
1023.377795  	74.089547 
1024.813108  	73.955692 
1026.248420  	73.758043 
1027.683733  	73.535794 
1029.119045  	73.374452 
1030.554358  	73.135505 
1031.989670  	72.612841 
1033.424983  	72.179408 
1034.860295  	72.440341 
1036.295608  	72.881881 
1037.730920  	72.871151 
1039.166233  	72.735189 
1040.601545  	72.616867 
1042.036858  	72.426713 
1043.472170  	72.312871 
1044.907483  	72.150596 
1046.342795  	71.974386 
1047.778108  	71.890550 
1049.213420  	71.700554 
1050.648733  	71.536143 
1052.084045  	71.437244 
1053.519357  	71.266252 
1054.954670  	71.210781 
1056.389982  	71.184170 
1057.825295  	71.145655 
1059.260607  	71.255031 
1060.695920  	71.291390 
1062.131232  	71.292931 
1063.566545  	71.397082 
1065.001857  	71.470931 
1066.437170  	71.606373 
1067.872482  	71.735783 
1069.307795  	71.800941 
1070.743107  	71.963039 
1072.178420  	72.101972 
1073.613732  	72.255079 
1075.049045  	72.443473 
1076.484357  	72.496648 
1077.919670  	72.625973 
1079.354982  	72.842194 
1080.790295  	73.037924 
1082.225607  	73.354627 
1083.660919  	73.589372 
1085.096232  	73.754095 
1086.531544  	74.086068 
1087.966857  	74.394406 
1089.402169  	74.652457 
1090.837482  	74.918252 
1092.272794  	75.127950 
1093.708107  	75.399008 
1095.143419  	75.683334 
1096.578732  	75.908661 
1098.014044  	76.141379 
1099.449357  	76.353945 
1100.884669  	76.563098 
1102.319982  	76.734120 
1103.755294  	76.896340 
1105.190607  	77.147168 
1106.625919  	77.328823 
1108.061232  	77.457888 
1109.496544  	77.648805 
1110.931857  	77.791899 
1112.367169  	77.953324 
1113.802481  	78.136947 
1115.237794  	78.250247 
1116.673106  	78.429831 
1118.108419  	78.676243 
1119.543731  	78.935247 
1120.979044  	79.216429 
1122.414356  	79.477753 
1123.849669  	79.803311 
1125.284981  	80.093355 
1126.720294  	80.217668 
1128.155606  	80.371116 
1129.590919  	80.587290 
1131.026231  	80.819519 
1132.461544  	81.109186 
1133.896856  	81.358306 
1135.332169  	81.587980 
1136.767481  	81.831538 
1138.202794  	82.009544 
1139.638106  	82.165368 
1141.073419  	82.337644 
1142.508731  	82.548094 
1143.944043  	82.733156 
1145.379356  	82.781940 
1146.814668  	82.831199 
1148.249981  	82.934708 
1149.685293  	83.011423 
1151.120606  	83.094224 
1152.555918  	83.127250 
1153.991231  	83.176287 
1155.426543  	83.334999 
1156.861856  	83.428990 
1158.297168  	83.483357 
1159.732481  	83.581664 
1161.167793  	83.654137 
1162.603106  	83.806312 
1164.038418  	83.998356 
1165.473731  	84.103013 
1166.909043  	84.216190 
1168.344356  	84.340497 
1169.779668  	84.496546 
1171.214981  	84.728565 
1172.650293  	84.931420 
1174.085605  	85.138971 
1175.520918  	85.364600 
1176.956230  	85.533670 
1178.391543  	85.676980 
1179.826855  	85.721398 
1181.262168  	85.619720 
1182.697480  	85.448109 
1184.132793  	85.207008 
1185.568105  	84.936949 
1187.003418  	84.687632 
1188.438730  	84.441333 
1189.874043  	84.241059 
1191.309355  	84.072261 
1192.744668  	83.891466 
1194.179980  	83.725687 
1195.615293  	83.525094 
1197.050605  	83.282124 
1198.485918  	83.073308 
1199.921230  	82.864684 
1201.356543  	82.598834 
1202.791855  	82.291348 
1204.227167  	82.001417 
1205.662480  	81.759347 
1207.097792  	81.513279 
1208.533105  	81.289463 
1209.968417  	81.124758 
1211.403730  	80.938644 
1212.839042  	80.762642 
1214.274355  	80.667568 
1215.709667  	80.591272 
1217.144980  	80.480851 
1218.580292  	80.341998 
1220.015605  	80.243804 
1221.450917  	80.199716 
1222.886230  	80.130036 
1224.321542  	80.054999 
1225.756855  	80.005373 
1227.192167  	79.999117 
1228.627480  	80.063477 
1230.062792  	80.092384 
1231.498105  	80.088411 
1232.933417  	80.136003 
1234.368729  	80.164814 
1235.804042  	80.200000 
1237.239354  	80.266364 
1238.674667  	80.298635 
1240.109979  	80.368523 
1241.545292  	80.466486 
1242.980604  	80.534785 
1244.415917  	80.636476 
1245.851229  	80.750097 
1247.286542  	80.866331 
1248.721854  	81.013655 
1250.157167  	81.169214 
1251.592479  	81.362788 
1253.027792  	81.548594 
1254.463104  	81.674709 
1255.898417  	81.800024 
1257.333729  	81.900512 
1258.769042  	81.944097 
1260.204354  	81.977754 
1261.639667  	82.078751 
1263.074979  	82.330081 
1264.510291  	82.688869 
1265.945604  	83.093840 
1267.380916  	83.519365 
1268.816229  	83.853159 
1270.251541  	84.075187 
1271.686854  	84.251545 
1273.122166  	84.404902 
1274.557479  	84.563501 
1275.992791  	84.699172 
1277.428104  	84.767560 
1278.863416  	84.798479 
1280.298729  	84.838151 
1281.734041  	84.899213 
1283.169354  	84.913092 
1284.604666  	84.834562 
1286.039979  	84.701929 
1287.475291  	84.522705 
1288.910604  	84.347997 
1290.345916  	84.226836 
1291.781229  	84.097566 
1293.216541  	83.982997 
1294.651853  	83.903618 
1296.087166  	83.803781 
1297.522478  	83.755487 
1298.957791  	83.766631 
1300.393103  	83.765249 
1301.828416  	83.781930 
1303.263728  	83.763060 
1304.699041  	83.696350 
1306.134353  	83.657859 
1307.569666  	83.571405 
1309.004978  	83.452903 
1310.440291  	83.379967 
1311.875603  	83.244388 
1313.310916  	83.105904 
1314.746228  	83.121000 
1316.181541  	83.165470 
1317.616853  	83.132843 
1319.052166  	83.097613 
1320.487478  	83.184365 
1321.922791  	83.353575 
1323.358103  	83.460462 
1324.793415  	83.523702 
1326.228728  	83.580942 
1327.664040  	83.582297 
1329.099353  	83.555785 
1330.534665  	83.510048 
1331.969978  	83.441246 
1333.405290  	83.413999 
1334.840603  	83.362050 
1336.275915  	83.232729 
1337.711228  	83.051037 
1339.146540  	82.751347 
1340.581853  	82.664716 
1342.017165  	83.010545 
1343.452478  	83.286692 
1344.887790  	83.311598 
1346.323103  	83.295316 
1347.758415  	83.276862 
1349.193728  	83.189496 
1350.629040  	83.091874 
1352.064353  	82.966488 
1353.499665  	82.740415 
1354.934977  	82.432394 
1356.370290  	82.170004 
1357.805602  	81.963286 
1359.240915  	81.725005 
1360.676227  	81.422402 
1362.111540  	80.868195 
1363.546852  	80.292371 
1364.982165  	80.243121 
1366.417477  	80.218606 
1367.852790  	79.890993 
1369.288102  	79.535262 
1370.723415  	79.454855 
1372.158727  	79.482699 
1373.594040  	79.150682 
1375.029352  	78.735173 
1376.464665  	78.964972 
1377.899977  	79.138345 
1379.335290  	79.011813 
1380.770602  	79.037719 
1382.205915  	79.033204 
1383.641227  	78.985311 
1385.076539  	79.056049 
1386.511852  	78.815026 
1387.947164  	78.495324 
1389.382477  	78.722755 
1390.817789  	79.000335 
1392.253102  	79.187697 
1393.688414  	79.115004 
1395.123727  	78.544741 
1396.559039  	78.502739 
1397.994352  	78.777038 
1399.429664  	78.571678 
1400.864977  	78.700428 
1402.300289  	79.204392 
1403.735602  	79.271854 
1405.170914  	79.069420 
1406.606227  	79.286847 
1408.041539  	79.632887 
1409.476852  	79.834895 
1410.912164  	79.889511 
1412.347477  	80.006384 
1413.782789  	80.271847 
1415.218101  	80.411463 
1416.653414  	80.507294 
1418.088726  	80.558534 
1419.524039  	80.357360 
1420.959351  	80.938738 
1422.394664  	81.706308 
1423.829976  	81.908230 
1425.265289  	82.098129 
1426.700601  	82.689945 
1428.135914  	82.887083 
1429.571226  	82.631595 
1431.006539  	82.560363 
1432.441851  	82.470909 
1433.877164  	82.409779 
1435.312476  	82.269432 
1436.747789  	81.267393 
1438.183101  	80.885000 
1439.618414  	81.293239 
1441.053726  	81.359029 
1442.489039  	81.182897 
1443.924351  	81.091558 
1445.359663  	81.105480 
1446.794976  	81.019879 
1448.230288  	80.612613 
1449.665601  	80.570597 
1451.100913  	80.780834 
1452.536226  	80.650981 
1453.971538  	80.643680 
1455.406851  	80.719553 
1456.842163  	79.621293 
1458.277476  	78.940046 
1459.712788  	79.817573 
1461.148101  	80.658365 
1462.583413  	81.151480 
1464.018726  	80.974364 
1465.454038  	80.484363 
1466.889351  	80.724555 
1468.324663  	81.106575 
1469.759976  	81.400559 
1471.195288  	81.392064 
1472.630601  	80.452347 
1474.065913  	80.327986 
1475.501225  	80.931428 
1476.936538  	81.166258 
1478.371850  	81.608152 
1479.807163  	82.085060 
1481.242475  	82.027393 
1482.677788  	81.886963 
1484.113100  	81.993627 
1485.548413  	81.774464 
1486.983725  	81.215327 
1488.419038  	80.643973 
1489.854350  	79.785931 
1491.289663  	79.254322 
1492.724975  	79.553681 
1494.160288  	79.773844 
1495.595600  	79.301522 
1497.030913  	78.229549 
1498.466225  	77.756777 
1499.901538  	77.630494 
1501.336850  	77.476014 
1502.772163  	77.420792 
1504.207475  	77.469109 
1505.642787  	77.062069 
1507.078100  	74.143244 
1508.513412  	73.362493 
1509.948725  	74.452736 
1511.384037  	74.804587 
1512.819350  	74.619772 
1514.254662  	74.723060 
1515.689975  	74.659192 
1517.125287  	73.540884 
1518.560600  	73.563592 
1519.995912  	74.240520 
1521.431225  	72.946901 
1522.866537  	71.967763 
1524.301850  	72.752722 
1525.737162  	72.510257 
1527.172475  	71.871917 
1528.607787  	71.867856 
1530.043100  	71.968826 
1531.478412  	72.347306 
1532.913725  	71.979494 
1534.349037  	70.573490 
1535.784349  	71.277064 
1537.219662  	72.277789 
1538.654974  	72.339685 
1540.090287  	70.529770 
1541.525599  	69.810882 
1542.960912  	70.921949 
1544.396224  	71.373968 
1545.831537  	71.635095 
1547.266849  	72.856310 
1548.702162  	73.693855 
1550.137474  	73.568200 
1551.572787  	74.108248 
1553.008099  	75.078585 
1554.443412  	75.228608 
1555.878724  	75.473935 
1557.314037  	76.486302 
1558.749349  	75.590088 
1560.184662  	73.815932 
1561.619974  	76.226102 
1563.055287  	77.566385 
1564.490599  	77.955684 
1565.925911  	78.108775 
1567.361224  	78.658177 
1568.796536  	78.839985 
1570.231849  	78.268711 
1571.667161  	78.657873 
1573.102474  	79.354508 
1574.537786  	79.541414 
1575.973099  	78.891944 
1577.408411  	78.208198 
1578.843724  	78.759376 
1580.279036  	79.317306 
1581.714349  	79.260899 
1583.149661  	79.263093 
1584.584974  	79.398600 
1586.020286  	79.268324 
1587.455599  	79.315048 
1588.890911  	79.275995 
1590.326224  	79.093982 
1591.761536  	79.178858 
1593.196849  	79.032031 
1594.632161  	78.755083 
1596.067473  	78.611242 
1597.502786  	78.359909 
1598.938098  	78.237568 
1600.373411  	77.926388 
1601.808723  	77.347906 
1603.244036  	76.935059 
1604.679348  	76.401719 
1606.114661  	75.944216 
1607.549973  	75.418392 
1608.985286  	74.560458 
1610.420598  	74.131810 
1611.855911  	73.672498 
1613.291223  	73.188648 
1614.726536  	73.202073 
1616.161848  	72.300072 
1617.597161  	70.506965 
1619.032473  	70.581936 
1620.467786  	70.958656 
1621.903098  	70.919917 
1623.338411  	69.864886 
1624.773723  	69.153373 
1626.209035  	69.743020 
1627.644348  	69.689462 
1629.079660  	69.129442 
1630.514973  	69.469480 
1631.950285  	69.799045 
1633.385598  	70.209028 
1634.820910  	70.366265 
1636.256223  	68.343653 
1637.691535  	68.447018 
1639.126848  	69.654264 
1640.562160  	70.008246 
1641.997473  	70.276066 
1643.432785  	70.701284 
1644.868098  	70.967798 
1646.303410  	70.557928 
1647.738723  	68.925910 
1649.174035  	69.686628 
1650.609348  	71.448920 
1652.044660  	72.374809 
1653.479973  	69.311469 
1654.915285  	69.287536 
1656.350597  	71.392035 
1657.785910  	72.844692 
1659.221222  	73.427275 
1660.656535  	74.042803 
1662.091847  	74.546856 
1663.527160  	74.370909 
1664.962472  	75.302664 
1666.397785  	76.425442 
1667.833097  	76.748383 
1669.268410  	76.779385 
1670.703722  	76.766525 
1672.139035  	77.579207 
1673.574347  	78.874558 
1675.009660  	78.970596 
1676.444972  	78.929460 
1677.880285  	80.181572 
1679.315597  	80.722218 
1680.750910  	80.812966 
1682.186222  	81.498381 
1683.621535  	81.400870 
1685.056847  	80.533469 
1686.492159  	81.866248 
1687.927472  	82.833345 
1689.362784  	83.268822 
1690.798097  	83.657868 
1692.233409  	84.421621 
1693.668722  	85.152658 
1695.104034  	85.276088 
1696.539347  	84.848481 
1697.974659  	85.605899 
1699.409972  	86.535707 
1700.845284  	86.386217 
1702.280597  	87.002190 
1703.715909  	88.136885 
1705.151222  	88.403451 
1706.586534  	88.386085 
1708.021847  	89.319818 
1709.457159  	89.803440 
1710.892472  	90.094231 
1712.327784  	90.639571 
1713.763097  	90.645811 
1715.198409  	90.606317 
1716.633721  	90.729041 
1718.069034  	90.437672 
1719.504346  	91.542834 
1720.939659  	92.579685 
1722.374971  	93.021997 
1723.810284  	93.377589 
1725.245596  	93.634912 
1726.680909  	93.985324 
1728.116221  	94.282589 
1729.551534  	94.143051 
1730.986846  	94.173317 
1732.422159  	94.279629 
1733.857471  	93.678363 
1735.292784  	93.885871 
1736.728096  	94.708021 
1738.163409  	94.953212 
1739.598721  	94.774123 
1741.034034  	94.830910 
1742.469346  	95.095802 
1743.904659  	95.094201 
1745.339971  	95.237210 
1746.775283  	95.422693 
1748.210596  	95.126767 
1749.645908  	95.187957 
1751.081221  	95.616889 
1752.516533  	95.898321 
1753.951846  	96.420195 
1755.387158  	96.620561 
1756.822471  	96.362211 
1758.257783  	96.634644 
1759.693096  	96.861737 
1761.128408  	96.674958 
1762.563721  	96.653194 
1763.999033  	96.878212 
1765.434346  	97.132524 
1766.869658  	97.102896 
1768.304971  	96.803374 
1769.740283  	96.863560 
1771.175596  	96.606745 
1772.610908  	96.222019 
1774.046221  	96.767482 
1775.481533  	96.995732 
1776.916845  	97.142475 
1778.352158  	97.330000 
1779.787470  	97.106958 
1781.222783  	97.140768 
1782.658095  	97.458759 
1784.093408  	97.441055 
1785.528720  	97.426045 
1786.964033  	97.509128 
1788.399345  	97.597004 
1789.834658  	97.556321 
1791.269970  	97.119521 
1792.705283  	96.928822 
1794.140595  	97.231015 
1795.575908  	97.383522 
1797.011220  	97.540489 
1798.446533  	97.563025 
1799.881845  	97.448667 
1801.317158  	97.431182 
1802.752470  	97.516792 
1804.187783  	97.758344 
1805.623095  	97.855881 
1807.058407  	97.733272 
1808.493720  	97.751646 
1809.929032  	97.669917 
1811.364345  	97.537531 
1812.799657  	97.743329 
1814.234970  	97.931644 
1815.670282  	97.983739 
1817.105595  	97.947307 
1818.540907  	97.913665 
1819.976220  	98.016135 
1821.411532  	97.971436 
1822.846845  	97.858030 
1824.282157  	97.747038 
1825.717470  	97.587787 
1827.152782  	97.756536 
1828.588095  	97.698336 
1830.023407  	97.297649 
1831.458720  	97.663469 
1832.894032  	98.033782 
1834.329345  	98.025149 
1835.764657  	98.031074 
1837.199969  	97.925970 
1838.635282  	97.986697 
1840.070594  	98.204574 
1841.505907  	98.111302 
1842.941219  	97.878188 
1844.376532  	97.503570 
1845.811844  	97.496585 
1847.247157  	97.888123 
1848.682469  	97.983332 
1850.117782  	98.057845 
1851.553094  	98.176579 
1852.988407  	98.029338 
1854.423719  	98.129113 
1855.859032  	98.223722 
1857.294344  	98.056093 
1858.729657  	98.127530 
1860.164969  	98.092253 
1861.600282  	98.030529 
1863.035594  	98.186919 
1864.470907  	98.082883 
1865.906219  	97.976843 
1867.341531  	97.774568 
1868.776844  	97.340751 
1870.212156  	97.690142 
1871.647469  	98.064968 
1873.082781  	98.070349 
1874.518094  	98.213788 
1875.953406  	98.241851 
1877.388719  	98.260421 
1878.824031  	98.293134 
1880.259344  	98.139291 
1881.694656  	98.198635 
1883.129969  	98.169031 
1884.565281  	97.986236 
1886.000594  	98.138144 
1887.435906  	98.136985 
1888.871219  	97.936270 
1890.306531  	97.968067 
1891.741844  	98.093444 
1893.177156  	98.231453 
1894.612469  	98.147127 
1896.047781  	98.026371 
1897.483093  	98.191779 
1898.918406  	98.207784 
1900.353718  	98.255125 
1901.789031  	98.305111 
1903.224343  	98.081092 
1904.659656  	98.148768 
1906.094968  	98.231191 
1907.530281  	98.063385 
1908.965593  	98.123284 
1910.400906  	98.101611 
1911.836218  	98.121336 
1913.271531  	98.287753 
1914.706843  	98.176501 
1916.142156  	98.126981 
1917.577468  	97.992369 
1919.012781  	97.857350 
1920.448093  	98.165153 
1921.883406  	98.009854 
1923.318718  	97.738598 
1924.754031  	98.169933 
1926.189343  	98.324300 
1927.624655  	98.293695 
1929.059968  	98.295460 
1930.495280  	98.148600 
1931.930593  	98.249439 
1933.365905  	98.259857 
1934.801218  	98.242211 
1936.236530  	98.377581 
1937.671843  	98.170734 
1939.107155  	98.274989 
1940.542468  	98.388964 
1941.977780  	97.817125 
1943.413093  	97.788704 
1944.848405  	98.007676 
1946.283718  	97.957861 
1947.719030  	98.242037 
1949.154343  	98.166812 
1950.589655  	98.046214 
1952.024968  	98.228034 
1953.460280  	98.083536 
1954.895592  	98.159632 
1956.330905  	98.201784 
1957.766217  	98.082654 
1959.201530  	98.392045 
1960.636842  	98.226816 
1962.072155  	98.066203 
1963.507467  	98.311420 
1964.942780  	97.942712 
1966.378092  	97.888290 
1967.813405  	98.209215 
1969.248717  	98.168080 
1970.684030  	98.330538 
1972.119342  	98.183538 
1973.554655  	98.162708 
1974.989967  	98.366505 
1976.425280  	97.871654 
1977.860592  	97.787498 
1979.295905  	97.866103 
1980.731217  	97.719067 
1982.166530  	98.020399 
1983.601842  	97.850881 
1985.037154  	97.693229 
1986.472467  	97.906810 
1987.907779  	97.650150 
1989.343092  	97.871279 
1990.778404  	98.056032 
1992.213717  	97.646097 
1993.649029  	98.029058 
1995.084342  	98.151111 
1996.519654  	97.909198 
1997.954967  	98.147840 
1999.390279  	97.964437 
2000.825592  	98.050311 
2002.260904  	98.320597 
2003.696217  	97.865735 
2005.131529  	97.997473 
2006.566842  	98.039602 
2008.002154  	97.543446 
2009.437467  	97.897638 
2010.872779  	97.984057 
2012.308092  	97.804347 
2013.743404  	97.990534 
2015.178716  	97.933512 
2016.614029  	98.227686 
2018.049341  	98.234263 
2019.484654  	97.881512 
2020.919966  	98.152550 
2022.355279  	97.889032 
2023.790591  	97.671432 
2025.225904  	98.123856 
2026.661216  	98.006628 
2028.096529  	98.050530 
2029.531841  	98.068323 
2030.967154  	97.812195 
2032.402466  	98.331980 
2033.837779  	98.481368 
2035.273091  	98.182403 
2036.708404  	98.014328 
2038.143716  	97.570928 
2039.579029  	97.744002 
2041.014341  	97.859765 
2042.449654  	97.445598 
2043.884966  	97.756376 
2045.320278  	97.899451 
2046.755591  	97.765955 
2048.190903  	97.968607 
2049.626216  	97.669820 
2051.061528  	97.597375 
2052.496841  	97.875324 
2053.932153  	97.811145 
2055.367466  	97.844606 
2056.802778  	97.639966 
2058.238091  	97.437481 
2059.673403  	97.785801 
2061.108716  	97.787838 
2062.544028  	97.655466 
2063.979341  	97.734705 
2065.414653  	97.632550 
2066.849966  	97.779268 
2068.285278  	97.845366 
2069.720591  	97.708282 
2071.155903  	97.792177 
2072.591216  	97.562587 
2074.026528  	97.368734 
2075.461840  	97.513788 
2076.897153  	97.445706 
2078.332465  	97.543083 
2079.767778  	97.697491 
2081.203090  	97.672186 
2082.638403  	97.844848 
2084.073715  	97.771682 
2085.509028  	97.578756 
2086.944340  	97.646291 
2088.379653  	97.576121 
2089.814965  	97.569212 
2091.250278  	97.622376 
2092.685590  	97.540291 
2094.120903  	97.602134 
2095.556215  	97.524946 
2096.991528  	97.390245 
2098.426840  	97.453283 
2099.862153  	97.515048 
2101.297465  	97.767785 
2102.732778  	97.765183 
2104.168090  	97.434944 
2105.603402  	97.540399 
2107.038715  	97.594737 
2108.474027  	97.527189 
2109.909340  	97.723668 
2111.344652  	97.594705 
2112.779965  	97.479087 
2114.215277  	97.586958 
2115.650590  	97.461329 
2117.085902  	97.579105 
2118.521215  	97.776410 
2119.956527  	97.710243 
2121.391840  	97.771536 
2122.827152  	97.667498 
2124.262465  	97.507072 
2125.697777  	97.618378 
2127.133090  	97.616367 
2128.568402  	97.671860 
2130.003715  	97.806477 
2131.439027  	97.798185 
2132.874340  	97.829538 
2134.309652  	97.745601 
2135.744964  	97.776347 
2137.180277  	97.844275 
2138.615589  	97.550322 
2140.050902  	97.550803 
2141.486214  	97.609001 
2142.921527  	97.500050 
2144.356839  	97.783670 
2145.792152  	97.720507 
2147.227464  	97.545236 
2148.662777  	97.768542 
2150.098089  	97.583803 
2151.533402  	97.673683 
2152.968714  	97.947093 
2154.404027  	97.613896 
2155.839339  	97.725579 
2157.274652  	97.799614 
2158.709964  	97.350614 
2160.145277  	97.269626 
2161.580589  	97.099747 
2163.015902  	97.180345 
2164.451214  	97.286580 
2165.886526  	96.864552 
2167.321839  	96.908468 
2168.757151  	97.080450 
2170.192464  	96.967307 
2171.627776  	97.039108 
2173.063089  	96.999371 
2174.498401  	97.126257 
2175.933714  	97.194135 
2177.369026  	96.887653 
2178.804339  	97.213824 
2180.239651  	97.481263 
2181.674964  	97.174636 
2183.110276  	97.296379 
2184.545589  	97.279299 
2185.980901  	97.058499 
2187.416214  	97.182326 
2188.851526  	97.167988 
2190.286839  	97.220625 
2191.722151  	97.387813 
2193.157464  	97.341173 
2194.592776  	97.267596 
2196.028088  	97.076161 
2197.463401  	96.987792 
2198.898713  	97.084261 
2200.334026  	97.097033 
2201.769338  	97.167132 
2203.204651  	97.032924 
2204.639963  	96.943640 
2206.075276  	97.267535 
2207.510588  	97.216452 
2208.945901  	97.020980 
2210.381213  	97.150667 
2211.816526  	97.130857 
2213.251838  	97.225396 
2214.687151  	97.343588 
2216.122463  	97.207661 
2217.557776  	97.244660 
2218.993088  	97.230646 
2220.428401  	97.187458 
2221.863713  	97.262833 
2223.299026  	97.095047 
2224.734338  	97.049965 
2226.169650  	97.164900 
2227.604963  	97.162430 
2229.040275  	97.213369 
2230.475588  	97.002769 
2231.910900  	96.822563 
2233.346213  	97.058719 
2234.781525  	97.137590 
2236.216838  	97.162517 
2237.652150  	97.186730 
2239.087463  	96.968000 
2240.522775  	96.996940 
2241.958088  	97.150881 
2243.393400  	97.151280 
2244.828713  	97.160557 
2246.264025  	96.999268 
2247.699338  	96.927156 
2249.134650  	97.048779 
2250.569963  	97.011343 
2252.005275  	96.998204 
2253.440588  	96.992509 
2254.875900  	96.949727 
2256.311212  	97.003350 
2257.746525  	96.918339 
2259.181837  	96.860584 
2260.617150  	96.870505 
2262.052462  	96.751722 
2263.487775  	96.824646 
2264.923087  	96.920046 
2266.358400  	96.805177 
2267.793712  	96.774527 
2269.229025  	96.748626 
2270.664337  	96.698484 
2272.099650  	96.633427 
2273.534962  	96.529180 
2274.970275  	96.619614 
2276.405587  	96.677303 
2277.840900  	96.611898 
2279.276212  	96.612733 
2280.711525  	96.477126 
2282.146837  	96.443486 
2283.582150  	96.566751 
2285.017462  	96.470133 
2286.452774  	96.433591 
2287.888087  	96.453065 
2289.323399  	96.321323 
2290.758712  	96.334887 
2292.194024  	96.333421 
2293.629337  	96.233755 
2295.064649  	96.241931 
2296.499962  	96.159085 
2297.935274  	96.099211 
2299.370587  	96.125039 
2300.805899  	96.019971 
2302.241212  	96.016431 
2303.676524  	96.078808 
2305.111837  	96.028422 
2306.547149  	95.981676 
2307.982462  	95.847598 
2309.417774  	95.745017 
2310.853087  	95.701584 
2312.288399  	95.533484 
2313.723712  	95.545635 
2315.159024  	95.616787 
2316.594336  	95.514812 
2318.029649  	95.497230 
2319.464961  	95.407314 
2320.900274  	95.268539 
2322.335586  	95.225346 
2323.770899  	94.994765 
2325.206211  	94.882881 
2326.641524  	94.963070 
2328.076836  	95.000771 
2329.512149  	95.016706 
2330.947461  	94.719307 
2332.382774  	94.491246 
2333.818086  	94.658413 
2335.253399  	94.571386 
2336.688711  	94.431232 
2338.124024  	94.507157 
2339.559336  	94.583904 
2340.994649  	94.790410 
2342.429961  	94.694332 
2343.865274  	94.413566 
2345.300586  	94.486554 
2346.735898  	94.636846 
2348.171211  	94.924254 
2349.606523  	95.161261 
2351.041836  	95.001411 
2352.477148  	94.731228 
2353.912461  	94.686504 
2355.347773  	94.488835 
2356.783086  	94.111899 
2358.218398  	93.640250 
2359.653711  	93.771840 
2361.089023  	94.213909 
2362.524336  	93.950497 
2363.959648  	94.056932 
2365.394961  	94.287960 
2366.830273  	94.156086 
2368.265586  	94.440601 
2369.700898  	94.619498 
2371.136211  	94.647170 
2372.571523  	94.814340 
2374.006836  	94.856606 
2375.442148  	95.021224 
2376.877460  	95.180427 
2378.312773  	95.166897 
2379.748085  	95.290378 
2381.183398  	95.445296 
2382.618710  	95.530365 
2384.054023  	95.651600 
2385.489335  	95.742796 
2386.924648  	95.819367 
2388.359960  	95.883344 
2389.795273  	95.898047 
2391.230585  	95.887046 
2392.665898  	95.797277 
2394.101210  	95.752221 
2395.536523  	95.814650 
2396.971835  	95.793664 
2398.407148  	95.744741 
2399.842460  	95.723833 
2401.277773  	95.695103 
2402.713085  	95.726290 
2404.148398  	95.707124 
2405.583710  	95.667912 
2407.019022  	95.683796 
2408.454335  	95.597434 
2409.889647  	95.554453 
2411.324960  	95.605896 
2412.760272  	95.568823 
2414.195585  	95.582372 
2415.630897  	95.623436 
2417.066210  	95.580952 
2418.501522  	95.561379 
2419.936835  	95.503041 
2421.372147  	95.444781 
2422.807460  	95.455477 
2424.242772  	95.434671 
2425.678085  	95.435769 
2427.113397  	95.413702 
2428.548710  	95.339948 
2429.984022  	95.324179 
2431.419335  	95.261794 
2432.854647  	95.198505 
2434.289960  	95.223126 
2435.725272  	95.209278 
2437.160584  	95.204474 
2438.595897  	95.184192 
2440.031209  	95.106966 
2441.466522  	95.103026 
2442.901834  	95.089143 
2444.337147  	95.053612 
2445.772459  	95.055797 
2447.207772  	95.004077 
2448.643084  	94.978932 
2450.078397  	94.963033 
2451.513709  	94.890109 
2452.949022  	94.876590 
2454.384334  	94.860633 
2455.819647  	94.857050 
2457.254959  	94.915834 
2458.690272  	94.890717 
2460.125584  	94.855304 
2461.560897  	94.845061 
2462.996209  	94.810605 
2464.431522  	94.830533 
2465.866834  	94.787896 
2467.302146  	94.733588 
2468.737459  	94.779422 
2470.172771  	94.735941 
2471.608084  	94.733792 
2473.043396  	94.837774 
2474.478709  	94.789022 
2475.914021  	94.705094 
2477.349334  	94.668329 
2478.784646  	94.617862 
2480.219959  	94.639846 
2481.655271  	94.628927 
2483.090584  	94.574596 
2484.525896  	94.577779 
2485.961209  	94.554056 
2487.396521  	94.520267 
2488.831834  	94.495015 
2490.267146  	94.479906 
2491.702459  	94.490925 
2493.137771  	94.427173 
2494.573084  	94.391965 
2496.008396  	94.419917 
2497.443708  	94.359993 
2498.879021  	94.341737 
2500.314333  	94.366440 
2501.749646  	94.323691 
2503.184958  	94.319741 
2504.620271  	94.301723 
2506.055583  	94.243047 
2507.490896  	94.182614 
2508.926208  	94.082614 
2510.361521  	94.081186 
2511.796833  	94.146389 
2513.232146  	94.167498 
2514.667458  	94.210220 
2516.102771  	94.149340 
2517.538083  	94.051477 
2518.973396  	94.082527 
2520.408708  	94.071441 
2521.844021  	94.043983 
2523.279333  	94.034522 
2524.714646  	93.956994 
2526.149958  	93.965454 
2527.585270  	93.989280 
2529.020583  	93.929931 
2530.455895  	93.914260 
2531.891208  	93.868802 
2533.326520  	93.833485 
2534.761833  	93.873208 
2536.197145  	93.845349 
2537.632458  	93.805112 
2539.067770  	93.778235 
2540.503083  	93.731620 
2541.938395  	93.723219 
2543.373708  	93.686070 
2544.809020  	93.658956 
2546.244333  	93.638881 
2547.679645  	93.544815 
2549.114958  	93.559405 
2550.550270  	93.622391 
2551.985583  	93.567773 
2553.420895  	93.559505 
2554.856208  	93.568164 
2556.291520  	93.528028 
2557.726832  	93.520275 
2559.162145  	93.490674 
2560.597457  	93.467617 
2562.032770  	93.445748 
2563.468082  	93.402144 
2564.903395  	93.454924 
2566.338707  	93.489678 
2567.774020  	93.425578 
2569.209332  	93.380503 
2570.644645  	93.322284 
2572.079957  	93.269009 
2573.515270  	93.235360 
2574.950582  	93.175499 
2576.385895  	93.182527 
2577.821207  	93.221016 
2579.256520  	93.217549 
2580.691832  	93.203193 
2582.127145  	93.142757 
2583.562457  	93.102197 
2584.997770  	93.111942 
2586.433082  	93.100238 
2587.868394  	93.100018 
2589.303707  	93.052055 
2590.739019  	92.961544 
2592.174332  	92.966576 
2593.609644  	92.981683 
2595.044957  	92.922529 
2596.480269  	92.857389 
2597.915582  	92.835457 
2599.350894  	92.853930 
2600.786207  	92.832250 
2602.221519  	92.801219 
2603.656832  	92.800589 
2605.092144  	92.730522 
2606.527457  	92.678714 
2607.962769  	92.707362 
2609.398082  	92.692149 
2610.833394  	92.653380 
2612.268707  	92.609563 
2613.704019  	92.562006 
2615.139332  	92.559953 
2616.574644  	92.543605 
2618.009956  	92.531303 
2619.445269  	92.528899 
2620.880581  	92.470711 
2622.315894  	92.440055 
2623.751206  	92.406789 
2625.186519  	92.333163 
2626.621831  	92.342648 
2628.057144  	92.350061 
2629.492456  	92.291616 
2630.927769  	92.269432 
2632.363081  	92.254097 
2633.798394  	92.236276 
2635.233706  	92.222155 
2636.669019  	92.188850 
2638.104331  	92.185093 
2639.539644  	92.161839 
2640.974956  	92.109572 
2642.410269  	92.102310 
2643.845581  	92.076964 
2645.280894  	92.033995 
2646.716206  	92.023811 
2648.151518  	92.000220 
2649.586831  	91.970280 
2651.022143  	91.943830 
2652.457456  	91.926753 
2653.892768  	91.926490 
2655.328081  	91.881787 
2656.763393  	91.835137 
2658.198706  	91.835340 
2659.634018  	91.810333 
2661.069331  	91.776674 
2662.504643  	91.768549 
2663.939956  	91.757226 
2665.375268  	91.746001 
2666.810581  	91.726999 
2668.245893  	91.709126 
2669.681206  	91.697762 
2671.116518  	91.673739 
2672.551831  	91.660311 
2673.987143  	91.637190 
2675.422456  	91.593938 
2676.857768  	91.564473 
2678.293080  	91.515901 
2679.728393  	91.471770 
2681.163705  	91.471712 
2682.599018  	91.467140 
2684.034330  	91.455580 
2685.469643  	91.425600 
2686.904955  	91.374538 
2688.340268  	91.359025 
2689.775580  	91.349236 
2691.210893  	91.321232 
2692.646205  	91.283811 
2694.081518  	91.233018 
2695.516830  	91.234780 
2696.952143  	91.252931 
2698.387455  	91.216497 
2699.822768  	91.195013 
2701.258080  	91.176763 
2702.693393  	91.144018 
2704.128705  	91.143936 
2705.564018  	91.130728 
2706.999330  	91.114710 
2708.434642  	91.106163 
2709.869955  	91.059714 
2711.305267  	91.038720 
2712.740580  	91.025977 
2714.175892  	90.968467 
2715.611205  	90.943724 
2717.046517  	90.940484 
2718.481830  	90.922063 
2719.917142  	90.908571 
2721.352455  	90.868371 
2722.787767  	90.824496 
2724.223080  	90.803320 
2725.658392  	90.775452 
2727.093705  	90.751267 
2728.529017  	90.730518 
2729.964330  	90.713993 
2731.399642  	90.696224 
2732.834955  	90.658788 
2734.270267  	90.643377 
2735.705580  	90.633982 
2737.140892  	90.594965 
2738.576204  	90.572189 
2740.011517  	90.555809 
2741.446829  	90.533931 
2742.882142  	90.523155 
2744.317454  	90.499412 
2745.752767  	90.478915 
2747.188079  	90.452775 
2748.623392  	90.404503 
2750.058704  	90.380569 
2751.494017  	90.362071 
2752.929329  	90.333860 
2754.364642  	90.312103 
2755.799954  	90.276278 
2757.235267  	90.250511 
2758.670579  	90.217299 
2760.105892  	90.158422 
2761.541204  	90.133149 
2762.976517  	90.111371 
2764.411829  	90.089230 
2765.847142  	90.093283 
2767.282454  	90.053526 
2768.717766  	90.020953 
2770.153079  	90.033227 
2771.588391  	90.000504 
2773.023704  	89.963032 
2774.459016  	89.939775 
2775.894329  	89.892665 
2777.329641  	89.871858 
2778.764954  	89.851648 
2780.200266  	89.805226 
2781.635579  	89.764861 
2783.070891  	89.729248 
2784.506204  	89.726075 
2785.941516  	89.719878 
2787.376829  	89.683663 
2788.812141  	89.679293 
2790.247454  	89.652957 
2791.682766  	89.596436 
2793.118079  	89.580449 
2794.553391  	89.549257 
2795.988704  	89.520935 
2797.424016  	89.527624 
2798.859328  	89.490619 
2800.294641  	89.436304 
2801.729953  	89.393542 
2803.165266  	89.344600 
2804.600578  	89.319275 
2806.035891  	89.292531 
2807.471203  	89.271177 
2808.906516  	89.268043 
2810.341828  	89.213587 
2811.777141  	89.138634 
2813.212453  	89.094487 
2814.647766  	89.060652 
2816.083078  	89.040925 
2817.518391  	88.990896 
2818.953703  	88.895232 
2820.389016  	88.819891 
2821.824328  	88.765126 
2823.259641  	88.719241 
2824.694953  	88.679245 
2826.130266  	88.611732 
2827.565578  	88.533699 
2829.000890  	88.469385 
2830.436203  	88.409970 
2831.871515  	88.354542 
2833.306828  	88.297728 
2834.742140  	88.229742 
2836.177453  	88.147276 
2837.612765  	88.067506 
2839.048078  	87.990858 
2840.483390  	87.881141 
2841.918703  	87.721606 
2843.354015  	87.485194 
2844.789328  	87.204929 
2846.224640  	86.991807 
2847.659953  	86.806229 
2849.095265  	86.590452 
2850.530578  	86.462692 
2851.965890  	86.449606 
2853.401203  	86.462836 
2854.836515  	86.497702 
2856.271828  	86.570778 
2857.707140  	86.671949 
2859.142452  	86.748088 
2860.577765  	86.764304 
2862.013077  	86.783411 
2863.448390  	86.818611 
2864.883702  	86.817228 
2866.319015  	86.764011 
2867.754327  	86.684251 
2869.189640  	86.631945 
2870.624952  	86.600380 
2872.060265  	86.566084 
2873.495577  	86.561881 
2874.930890  	86.573878 
2876.366202  	86.615556 
2877.801515  	86.705503 
2879.236827  	86.745629 
2880.672140  	86.736193 
2882.107452  	86.753770 
2883.542765  	86.767332 
2884.978077  	86.755471 
2886.413390  	86.724671 
2887.848702  	86.688147 
2889.284014  	86.652584 
2890.719327  	86.572507 
2892.154639  	86.476424 
2893.589952  	86.401614 
2895.025264  	86.316221 
2896.460577  	86.251058 
2897.895889  	86.195187 
2899.331202  	86.103253 
2900.766514  	86.014058 
2902.201827  	85.921948 
2903.637139  	85.825713 
2905.072452  	85.731737 
2906.507764  	85.575944 
2907.943077  	85.406505 
2909.378389  	85.285973 
2910.813702  	85.147735 
2912.249014  	84.969449 
2913.684327  	84.761489 
2915.119639  	84.549717 
2916.554952  	84.380253 
2917.990264  	84.229508 
2919.425576  	84.121823 
2920.860889  	84.090229 
2922.296201  	84.082174 
2923.731514  	84.117511 
2925.166826  	84.208411 
2926.602139  	84.325659 
2928.037451  	84.479657 
2929.472764  	84.602579 
2930.908076  	84.704583 
2932.343389  	84.887778 
2933.778701  	85.081597 
2935.214014  	85.220956 
2936.649326  	85.362052 
2938.084639  	85.522430 
2939.519951  	85.680534 
2940.955264  	85.809120 
2942.390576  	85.909364 
2943.825889  	85.986229 
2945.261201  	86.039052 
2946.696514  	86.094532 
2948.131826  	86.099946 
2949.567138  	86.026076 
2951.002451  	85.961495 
2952.437763  	85.902372 
2953.873076  	85.819798 
2955.308388  	85.753301 
2956.743701  	85.691366 
2958.179013  	85.664215 
2959.614326  	85.703088 
2961.049638  	85.746169 
2962.484951  	85.801384 
2963.920263  	85.885106 
2965.355576  	85.962671 
2966.790888  	86.071606 
2968.226201  	86.215932 
2969.661513  	86.321245 
2971.096826  	86.385941 
2972.532138  	86.480215 
2973.967451  	86.614107 
2975.402763  	86.734855 
2976.838076  	86.837991 
2978.273388  	86.922717 
2979.708700  	86.970311 
2981.144013  	87.025727 
2982.579325  	87.109826 
2984.014638  	87.202424 
2985.449950  	87.291626 
2986.885263  	87.351348 
2988.320575  	87.420704 
2989.755888  	87.508068 
2991.191200  	87.535324 
2992.626513  	87.550813 
2994.061825  	87.616501 
2995.497138  	87.675699 
2996.932450  	87.713448 
2998.367763  	87.732379 
2999.803075  	87.726159 
3001.238388  	87.716832 
3002.673700  	87.696462 
3004.109013  	87.659136 
3005.544325  	87.623900 
3006.979638  	87.607042 
3008.414950  	87.593397 
3009.850262  	87.552511 
3011.285575  	87.518724 
3012.720887  	87.499555 
3014.156200  	87.460636 
3015.591512  	87.432945 
3017.026825  	87.400172 
3018.462137  	87.368251 
3019.897450  	87.393696 
3021.332762  	87.370792 
3022.768075  	87.268922 
3024.203387  	87.216878 
3025.638700  	87.188365 
3027.074012  	87.148486 
3028.509325  	87.135742 
3029.944637  	87.093216 
3031.379950  	87.005510 
3032.815262  	86.948680 
3034.250575  	86.954548 
3035.685887  	86.970267 
3037.121200  	86.947704 
3038.556512  	86.924684 
3039.991824  	86.887483 
3041.427137  	86.814416 
3042.862449  	86.789218 
3044.297762  	86.790030 
3045.733074  	86.742494 
3047.168387  	86.667647 
3048.603699  	86.594236 
3050.039012  	86.572646 
3051.474324  	86.558627 
3052.909637  	86.478309 
3054.344949  	86.424116 
3055.780262  	86.400390 
3057.215574  	86.364612 
3058.650887  	86.376748 
3060.086199  	86.375552 
3061.521512  	86.348370 
3062.956824  	86.356949 
3064.392137  	86.336950 
3065.827449  	86.310914 
3067.262762  	86.305981 
3068.698074  	86.300025 
3070.133386  	86.374215 
3071.568699  	86.438374 
3073.004011  	86.394442 
3074.439324  	86.378346 
3075.874636  	86.400912 
3077.309949  	86.403458 
3078.745261  	86.403843 
3080.180574  	86.386781 
3081.615886  	86.399139 
3083.051199  	86.448246 
3084.486511  	86.467692 
3085.921824  	86.455535 
3087.357136  	86.425953 
3088.792449  	86.441544 
3090.227761  	86.484191 
3091.663074  	86.457236 
3093.098386  	86.446415 
3094.533699  	86.469191 
3095.969011  	86.447993 
3097.404324  	86.471468 
3098.839636  	86.513639 
3100.274948  	86.483860 
3101.710261  	86.462790 
3103.145573  	86.484856 
3104.580886  	86.516383 
3106.016198  	86.527709 
3107.451511  	86.523139 
3108.886823  	86.556507 
3110.322136  	86.573096 
3111.757448  	86.561478 
3113.192761  	86.603808 
3114.628073  	86.631471 
3116.063386  	86.609603 
3117.498698  	86.611812 
3118.934011  	86.626678 
3120.369323  	86.627406 
3121.804636  	86.624435 
3123.239948  	86.656812 
3124.675261  	86.702632 
3126.110573  	86.677480 
3127.545886  	86.643586 
3128.981198  	86.656693 
3130.416510  	86.659455 
3131.851823  	86.644903 
3133.287135  	86.593979 
3134.722448  	86.556439 
3136.157760  	86.591386 
3137.593073  	86.586810 
3139.028385  	86.547027 
3140.463698  	86.534238 
3141.899010  	86.496673 
3143.334323  	86.485316 
3144.769635  	86.493100 
3146.204948  	86.466321 
3147.640260  	86.469433 
3149.075573  	86.442928 
3150.510885  	86.358854 
3151.946198  	86.308404 
3153.381510  	86.276986 
3154.816823  	86.277681 
3156.252135  	86.273911 
3157.687448  	86.201185 
3159.122760  	86.181241 
3160.558072  	86.201678 
3161.993385  	86.153613 
3163.428697  	86.096654 
3164.864010  	86.053037 
3166.299322  	86.019415 
3167.734635  	85.981348 
3169.169947  	85.911117 
3170.605260  	85.907285 
3172.040572  	85.935745 
3173.475885  	85.891882 
3174.911197  	85.874456 
3176.346510  	85.885684 
3177.781822  	85.842873 
3179.217135  	85.794376 
3180.652447  	85.767665 
3182.087760  	85.754613 
3183.523072  	85.736435 
3184.958385  	85.698330 
3186.393697  	85.676940 
3187.829010  	85.657830 
3189.264322  	85.628540 
3190.699634  	85.616638 
3192.134947  	85.616664 
3193.570259  	85.641567 
3195.005572  	85.670969 
3196.440884  	85.655425 
3197.876197  	85.605203 
3199.311509  	85.560688 
3200.746822  	85.576998 
3202.182134  	85.609623 
3203.617447  	85.577102 
3205.052759  	85.554291 
3206.488072  	85.576182 
3207.923384  	85.582593 
3209.358697  	85.564073 
3210.794009  	85.527006 
3212.229322  	85.504618 
3213.664634  	85.456039 
3215.099947  	85.364916 
3216.535259  	85.379104 
3217.970572  	85.428588 
3219.405884  	85.379325 
3220.841196  	85.361531 
3222.276509  	85.380053 
3223.711821  	85.359334 
3225.147134  	85.343523 
3226.582446  	85.298829 
3228.017759  	85.239507 
3229.453071  	85.220440 
3230.888384  	85.217975 
3232.323696  	85.214948 
3233.759009  	85.158475 
3235.194321  	85.095777 
3236.629634  	85.095281 
3238.064946  	85.048280 
3239.500259  	84.968535 
3240.935571  	84.920044 
3242.370884  	84.854303 
3243.806196  	84.802774 
3245.241509  	84.746691 
3246.676821  	84.691395 
3248.112134  	84.693068 
3249.547446  	84.621368 
3250.982758  	84.500262 
3252.418071  	84.453704 
3253.853383  	84.375432 
3255.288696  	84.279380 
3256.724008  	84.247109 
3258.159321  	84.212287 
3259.594633  	84.151264 
3261.029946  	84.049593 
3262.465258  	83.959088 
3263.900571  	83.931570 
3265.335883  	83.881485 
3266.771196  	83.833174 
3268.206508  	83.824546 
3269.641821  	83.815159 
3271.077133  	83.817420 
3272.512446  	83.764122 
3273.947758  	83.687118 
3275.383071  	83.691582 
3276.818383  	83.686334 
3278.253695  	83.692232 
3279.689008  	83.757729 
3281.124320  	83.792408 
3282.559633  	83.831333 
3283.994945  	83.855521 
3285.430258  	83.852463 
3286.865570  	83.929777 
3288.300883  	83.999839 
3289.736195  	84.043803 
3291.171508  	84.144046 
3292.606820  	84.188497 
3294.042133  	84.206939 
3295.477445  	84.295450 
3296.912758  	84.378814 
3298.348070  	84.454035 
3299.783383  	84.527780 
3301.218695  	84.599900 
3302.654008  	84.714930 
3304.089320  	84.824379 
3305.524633  	84.901465 
3306.959945  	84.958342 
3308.395257  	84.988402 
3309.830570  	85.044282 
3311.265882  	85.146770 
3312.701195  	85.264716 
3314.136507  	85.361771 
3315.571820  	85.428251 
3317.007132  	85.511330 
3318.442445  	85.600988 
3319.877757  	85.693299 
3321.313070  	85.782292 
3322.748382  	85.810986 
3324.183695  	85.880390 
3325.619007  	86.011401 
3327.054320  	86.069898 
3328.489632  	86.140082 
3329.924945  	86.240929 
3331.360257  	86.291320 
3332.795570  	86.394601 
3334.230882  	86.512481 
3335.666195  	86.546916 
3337.101507  	86.583261 
3338.536819  	86.670546 
3339.972132  	86.797869 
3341.407444  	86.897687 
3342.842757  	86.961280 
3344.278069  	87.076686 
3345.713382  	87.168537 
3347.148694  	87.226646 
3348.584007  	87.325042 
3350.019319  	87.379064 
3351.454632  	87.443136 
3352.889944  	87.576409 
3354.325257  	87.665314 
3355.760569  	87.720585 
3357.195882  	87.771743 
3358.631194  	87.852364 
3360.066507  	87.982114 
3361.501819  	88.051102 
3362.937132  	88.119797 
3364.372444  	88.241196 
3365.807757  	88.312634 
3367.243069  	88.390190 
3368.678381  	88.475535 
3370.113694  	88.544813 
3371.549006  	88.663089 
3372.984319  	88.750788 
3374.419631  	88.831756 
3375.854944  	88.940464 
3377.290256  	88.976271 
3378.725569  	89.029114 
3380.160881  	89.118281 
3381.596194  	89.189130 
3383.031506  	89.278713 
3384.466819  	89.276346 
3385.902131  	89.274874 
3387.337444  	89.399858 
3388.772756  	89.465125 
3390.208069  	89.531854 
3391.643381  	89.620207 
3393.078694  	89.596709 
3394.514006  	89.668175 
3395.949319  	89.774237 
3397.384631  	89.735544 
3398.819943  	89.771263 
3400.255256  	89.864049 
3401.690568  	89.904215 
3403.125881  	89.986223 
3404.561193  	90.047067 
3405.996506  	90.083172 
3407.431818  	90.163116 
3408.867131  	90.234392 
3410.302443  	90.273633 
3411.737756  	90.301209 
3413.173068  	90.379137 
3414.608381  	90.463505 
3416.043693  	90.490933 
3417.479006  	90.565836 
3418.914318  	90.587751 
3420.349631  	90.483865 
3421.784943  	90.500128 
3423.220256  	90.637100 
3424.655568  	90.764578 
3426.090881  	90.861248 
3427.526193  	90.874542 
3428.961505  	90.912661 
3430.396818  	91.001581 
3431.832130  	91.039589 
3433.267443  	91.084032 
3434.702755  	91.144423 
3436.138068  	91.226857 
3437.573380  	91.290377 
3439.008693  	91.261028 
3440.444005  	91.314213 
3441.879318  	91.383228 
3443.314630  	91.348197 
3444.749943  	91.451689 
3446.185255  	91.506329 
3447.620568  	91.381367 
3449.055880  	91.514094 
3450.491193  	91.753882 
3451.926505  	91.820936 
3453.361818  	91.864572 
3454.797130  	91.908494 
3456.232443  	91.969607 
3457.667755  	92.049831 
3459.103067  	92.044885 
3460.538380  	92.030655 
3461.973692  	92.029196 
3463.409005  	92.047034 
3464.844317  	92.149114 
3466.279630  	92.216860 
3467.714942  	92.266463 
3469.150255  	92.394450 
3470.585567  	92.517578 
3472.020880  	92.604621 
3473.456192  	92.619797 
3474.891505  	92.586981 
3476.326817  	92.665132 
3477.762130  	92.817464 
3479.197442  	92.876068 
3480.632755  	92.770813 
3482.068067  	92.660457 
3483.503380  	92.799901 
3484.938692  	93.024084 
3486.374005  	93.082116 
3487.809317  	93.061242 
3489.244629  	93.090928 
3490.679942  	93.204761 
3492.115254  	93.362511 
3493.550567  	93.441220 
3494.985879  	93.409928 
3496.421192  	93.387722 
3497.856504  	93.490093 
3499.291817  	93.611656 
3500.727129  	93.589891 
3502.162442  	93.457193 
3503.597754  	93.343570 
3505.033067  	93.460913 
3506.468379  	93.758151 
3507.903692  	93.848196 
3509.339004  	93.734902 
3510.774317  	93.812336 
3512.209629  	94.080712 
3513.644942  	94.297320 
3515.080254  	94.350453 
3516.515567  	94.331372 
3517.950879  	94.401820 
3519.386191  	94.479883 
3520.821504  	94.482746 
3522.256816  	94.360199 
3523.692129  	94.132869 
3525.127441  	94.185969 
3526.562754  	94.392016 
3527.998066  	94.388885 
3529.433379  	94.435122 
3530.868691  	94.577016 
3532.304004  	94.739059 
3533.739316  	95.029255 
3535.174629  	95.133707 
3536.609941  	95.005977 
3538.045254  	95.037524 
3539.480566  	95.172975 
3540.915879  	95.339555 
3542.351191  	95.436890 
3543.786504  	95.223281 
3545.221816  	94.917675 
3546.657129  	94.848920 
3548.092441  	95.107860 
3549.527753  	95.522249 
3550.963066  	95.616470 
3552.398378  	95.407566 
3553.833691  	95.465427 
3555.269003  	95.819159 
3556.704316  	96.148975 
3558.139628  	96.189239 
3559.574941  	95.933183 
3561.010253  	95.858833 
3562.445566  	96.057498 
3563.880878  	96.069457 
3565.316191  	95.678654 
3566.751503  	94.977723 
3568.186816  	94.917096 
3569.622128  	95.757994 
3571.057441  	96.355861 
3572.492753  	96.503978 
3573.928066  	96.454085 
3575.363378  	96.533827 
3576.798691  	96.829294 
3578.234003  	96.973999 
3579.669315  	96.796462 
3581.104628  	96.699050 
3582.539940  	96.869140 
3583.975253  	96.972773 
3585.410565  	96.754773 
3586.845878  	96.160811 
3588.281190  	95.734451 
3589.716503  	96.329485 
3591.151815  	97.000392 
3592.587128  	97.070243 
3594.022440  	96.801735 
3595.457753  	96.846033 
3596.893065  	97.232158 
3598.328378  	97.537368 
3599.763690  	97.457299 
3601.199003  	97.191795 
3602.634315  	97.364313 
3604.069628  	97.714898 
3605.504940  	97.700242 
3606.940253  	97.365786 
3608.375565  	96.992214 
3609.810877  	97.097123 
3611.246190  	97.457046 
3612.681502  	97.355512 
3614.116815  	97.030227 
3615.552127  	97.276564 
3616.987440  	97.782080 
3618.422752  	98.027067 
3619.858065  	97.668975 
3621.293377  	97.469170 
3622.728690  	97.975271 
3624.164002  	98.440830 
3625.599315  	98.392485 
3627.034627  	97.971799 
3628.469940  	97.068692 
3629.905252  	96.769781 
3631.340565  	98.003924 
3632.775877  	98.482111 
3634.211190  	98.303598 
3635.646502  	98.426902 
3637.081815  	98.867476 
3638.517127  	99.102373 
3639.952439  	99.082680 
3641.387752  	98.816139 
3642.823064  	98.589217 
3644.258377  	98.917234 
3645.693689  	99.078047 
3647.129002  	98.140202 
3648.564314  	96.796472 
3649.999627  	96.608862 
3651.434939  	97.530660 
3652.870252  	98.658565 
3654.305564  	98.908873 
3655.740877  	98.508663 
3657.176189  	98.595912 
3658.611502  	99.352196 
3660.046814  	99.731515 
3661.482127  	99.670515 
3662.917439  	99.541313 
3664.352752  	99.611071 
3665.788064  	99.653424 
3667.223377  	99.361264 
3668.658689  	98.656719 
3670.094001  	97.825470 
3671.529314  	98.267058 
3672.964626  	98.956930 
3674.399939  	98.569077 
3675.835251  	97.457376 
3677.270564  	98.239036 
3678.705876  	98.983959 
3680.141189  	99.355052 
3681.576501  	99.581204 
3683.011814  	99.514899 
3684.447126  	99.547998 
3685.882439  	99.795952 
3687.317751  	99.568270 
3688.753064  	98.600597 
3690.188376  	98.123629 
3691.623689  	98.506096 
3693.059001  	99.169810 
3694.494314  	99.548050 
3695.929626  	99.409091 
3697.364939  	99.331619 
3698.800251  	99.720692 
3700.235563  	99.967086 
3701.670876  	99.733533 
3703.106188  	99.436826 
3704.541501  	99.457948 
3705.976813  	99.644995 
3707.412126  	99.664416 
3708.847438  	99.248739 
3710.282751  	98.553943 
3711.718063  	98.094327 
3713.153376  	98.444649 
3714.588688  	99.113762 
3716.024001  	99.419755 
3717.459313  	99.452649 
3718.894626  	99.535937 
3720.329938  	99.661181 
3721.765251  	99.499721 
3723.200563  	99.119463 
3724.635876  	99.110166 
3726.071188  	99.331639 
3727.506501  	99.355267 
3728.941813  	99.323593 
3730.377125  	99.195553 
3731.812438  	98.809508 
3733.247750  	98.697246 
3734.683063  	98.523441 
3736.118375  	97.707629 
3737.553688  	98.163177 
3738.989000  	99.074300 
3740.424313  	99.389666 
3741.859625  	99.350908 
3743.294938  	98.928525 
3744.730250  	97.981917 
3746.165563  	98.563930 
3747.600875  	99.122620 
3749.036188  	98.809548 
3750.471500  	98.167732 
3751.906813  	98.012273 
3753.342125  	98.618340 
3754.777438  	99.404453 
3756.212750  	99.499015 
3757.648063  	99.144165 
3759.083375  	99.060206 
3760.518687  	99.336802 
3761.954000  	99.729188 
3763.389312  	99.874607 
3764.824625  	99.594857 
3766.259937  	99.381301 
3767.695250  	99.731086 
3769.130562  	99.889380 
3770.565875  	99.568488 
3772.001187  	99.466960 
3773.436500  	99.716105 
3774.871812  	100.011850 
3776.307125  	100.144564 
3777.742437  	99.884270 
3779.177750  	99.310794 
3780.613062  	99.261492 
3782.048375  	99.844089 
3783.483687  	100.055169 
3784.919000  	99.842546 
3786.354312  	99.799433 
3787.789625  	99.936677 
3789.224937  	100.129657 
3790.660249  	100.353437 
3792.095562  	100.214426 
3793.530874  	99.832160 
3794.966187  	99.738955 
3796.401499  	99.720482 
3797.836812  	99.539214 
3799.272124  	99.344337 
3800.707437  	98.930368 
3802.142749  	98.700764 
3803.578062  	99.501758 
3805.013374  	99.911067 
3806.448687  	99.596660 
3807.883999  	99.116726 
3809.319312  	99.526275 
3810.754624  	100.068968 
3812.189937  	100.220393 
3813.625249  	99.928513 
3815.060562  	99.318751 
3816.495874  	98.813735 
3817.931187  	99.285603 
3819.366499  	99.438355 
3820.801811  	98.778750 
3822.237124  	98.436993 
3823.672436  	99.089434 
3825.107749  	99.525425 
3826.543061  	99.664065 
3827.978374  	99.614862 
3829.413686  	99.633341 
3830.848999  	99.637312 
3832.284311  	99.511131 
3833.719624  	99.396097 
3835.154936  	99.224856 
3836.590249  	98.964166 
3838.025561  	98.707543 
3839.460874  	98.618139 
3840.896186  	98.956850 
3842.331499  	99.245275 
3843.766811  	99.176448 
3845.202124  	99.285877 
3846.637436  	99.662346 
3848.072749  	99.811018 
3849.508061  	99.716334 
3850.943373  	99.481906 
3852.378686  	98.889202 
3853.813998  	98.239165 
3855.249311  	98.832561 
3856.684623  	99.106739 
3858.119936  	99.339660 
3859.555248  	99.682949 
3860.990561  	99.528521 
3862.425873  	99.116581 
3863.861186  	99.126822 
3865.296498  	99.145992 
3866.731811  	99.389322 
3868.167123  	99.688067 
3869.602436  	99.235108 
3871.037748  	98.806507 
3872.473061  	99.265970 
3873.908373  	99.330083 
3875.343686  	99.455752 
3876.778998  	99.776864 
3878.214311  	99.675698 
3879.649623  	99.388295 
3881.084935  	99.189785 
3882.520248  	99.216965 
3883.955560  	99.321901 
3885.390873  	99.112424 
3886.826185  	99.204190 
3888.261498  	99.785767 
3889.696810  	99.862337 
3891.132123  	99.479423 
3892.567435  	99.258012 
3894.002748  	99.462095 
3895.438060  	99.803699 
3896.873373  	99.764532 
3898.308685  	99.311313 
3899.743998  	99.042933 
3901.179310  	99.012734 
3902.614623  	99.009076 
3904.049935  	99.067491 
3905.485248  	99.062696 
3906.920560  	99.313301 
3908.355873  	99.752442 
3909.791185  	99.955874 
3911.226497  	99.920154 
3912.661810  	99.917436 
3914.097122  	100.049775 
3915.532435  	100.028964 
3916.967747  	99.664687 
3918.403060  	99.484815 
3919.838372  	99.572332 
3921.273685  	99.639849 
3922.708997  	99.696754 
3924.144310  	99.482134 
3925.579622  	99.275413 
3927.014935  	99.586761 
3928.450247  	99.778794 
3929.885560  	99.709236 
3931.320872  	99.678065 
3932.756185  	99.593870 
3934.191497  	99.675602 
3935.626810  	99.937554 
3937.062122  	99.996825 
3938.497435  	99.898797 
3939.932747  	99.824104 
3941.368059  	99.775444 
3942.803372  	99.688656 
3944.238684  	99.613530 
3945.673997  	99.680269 
3947.109309  	99.675804 
3948.544622  	99.537520 
3949.979934  	99.605171 
3951.415247  	99.777220 
3952.850559  	99.878609 
3954.285872  	99.943888 
3955.721184  	99.877690 
3957.156497  	99.843178 
3958.591809  	99.946702 
3960.027122  	99.933519 
3961.462434  	99.802734 
3962.897747  	99.717874 
3964.333059  	99.765135 
3965.768372  	99.904214 
3967.203684  	99.953963 
3968.638997  	99.911669 
3970.074309  	99.857534 
3971.509621  	99.841982 
3972.944934  	99.931370 
3974.380246  	99.932343 
3975.815559  	99.820872 
3977.250871  	99.849896 
3978.686184  	99.907567 
3980.121496  	99.891634 
3981.556809  	99.905576 
3982.992121  	99.923760 
3984.427434  	99.924856 
3985.862746  	99.892108 
3987.298059  	99.864491 
3988.733371  	99.863653 
3990.168684  	99.778645 
3991.603996  	99.775744 
3993.039309  	99.902603 
3994.474621  	99.866390 
3995.909934  	99.799555 
3997.345246  	99.865418 
3998.780559  	99.896942 
4000.215871  	99.936746 